##NAMES=Bobjonesite
##RRUFFID=R060530
##IDEAL CHEMISTRY=V^4+^OSO_4_&#183;3H_2_O
##LOCALITY=Petrified log in the North Mesa 5 mine, Temple Mountain, Emery County, Utah, USA
##OWNER=RRUFF
##SOURCE=Michael Scott
##DESCRIPTION=Blue granular crystals
##STATUS=The identification of this mineral has been confirmed by single-crystal X-ray diffraction.
##URL=rruff.info/R060530
125.862, 0.000
126.344, 38.819
126.826, 63.657
127.308, 41.394
127.791, 3.689
128.273, 8.520
128.755, 1.695
129.237, 23.188
129.719, 59.426
130.201, 103.115
130.683, 129.052
131.165, 129.925
131.648, 122.446
132.130, 138.389
132.612, 177.719
133.094, 222.534
133.576, 257.722
134.058, 283.333
134.540, 319.799
135.022, 374.214
135.504, 441.448
135.986, 497.356
136.469, 542.667
136.951, 579.470
137.433, 607.677
137.915, 624.670
138.397, 643.630
138.879, 667.547
139.361, 695.944
139.844, 726.910
140.326, 757.689
140.808, 794.528
141.290, 849.453
141.772, 929.340
142.254, 1011.104
142.736, 1085.503
143.218, 1153.525
143.700, 1213.979
144.182, 1262.149
144.665, 1303.586
145.147, 1360.594
145.629, 1442.910
146.111, 1527.731
146.593, 1603.507
147.075, 1662.916
147.557, 1721.779
148.039, 1787.675
148.522, 1848.487
149.004, 1910.637
149.486, 1981.477
149.968, 2029.988
150.450, 2053.247
150.932, 2032.454
151.414, 1991.336
151.896, 1938.924
152.378, 1881.373
152.861, 1804.162
153.343, 1701.708
153.825, 1581.762
154.307, 1453.545
154.789, 1302.034
155.271, 1156.906
155.753, 1029.799
156.235, 930.204
156.717, 831.972
157.200, 715.189
157.682, 595.652
158.164, 509.431
158.646, 494.960
159.128, 496.238
159.610, 480.318
160.092, 401.563
160.574, 351.120
161.057, 351.828
161.539, 340.352
162.021, 317.379
162.503, 247.845
162.985, 238.879
163.467, 205.924
163.949, 172.170
164.431, 158.988
164.913, 140.261
165.396, 132.206
165.878, 116.007
166.360, 68.279
166.842, 10.158
167.324, 31.256
167.806, 22.186
168.288, 6.297
168.770, 19.659
169.253, 68.634
169.735, 115.929
170.217, 130.371
170.699, 124.012
171.181, 121.541
171.663, 149.426
172.145, 181.288
172.627, 184.613
173.109, 146.063
173.592, 103.329
174.074, 96.366
174.556, 116.662
175.038, 132.689
175.520, 121.971
176.002, 94.531
176.484, 67.493
176.966, 44.307
177.449, 22.220
177.931, 0.544
178.413, 23.915
178.895, 51.605
179.377, 93.170
179.859, 141.559
180.341, 179.958
180.823, 198.814
181.305, 207.320
181.788, 218.484
182.270, 231.928
182.752, 250.756
183.234, 279.840
183.716, 311.558
184.198, 342.454
184.680, 366.475
185.162, 387.171
185.645, 419.869
186.127, 466.244
186.609, 515.301
187.091, 545.064
187.573, 558.424
188.055, 579.796
188.537, 617.981
189.019, 673.153
189.501, 750.182
189.984, 855.408
190.466, 970.415
190.948, 1061.245
191.430, 1128.645
191.912, 1201.357
192.394, 1291.771
192.876, 1400.460
193.358, 1537.104
193.840, 1710.419
194.323, 1902.251
194.805, 2072.886
195.287, 2218.845
195.769, 2364.220
196.251, 2525.225
196.733, 2704.671
197.215, 2889.917
197.697, 3084.363
198.180, 3283.191
198.662, 3465.068
199.144, 3625.428
199.626, 3785.861
200.108, 3971.201
200.590, 4187.577
201.072, 4379.574
201.554, 4535.209
202.036, 4657.012
202.519, 4766.807
203.001, 4868.119
203.483, 4947.295
203.965, 4981.594
204.447, 4961.270
204.929, 4942.805
205.411, 4950.555
205.893, 4984.006
206.376, 4968.062
206.858, 4889.334
207.340, 4781.083
207.822, 4693.552
208.304, 4638.551
208.786, 4564.062
209.268, 4448.762
209.750, 4286.597
210.232, 4133.918
210.715, 4000.339
211.197, 3866.976
211.679, 3695.019
212.161, 3470.026
212.643, 3243.499
213.125, 3041.645
213.607, 2868.556
214.089, 2696.291
214.572, 2522.079
215.054, 2350.230
215.536, 2184.637
216.018, 2018.875
216.500, 1870.290
216.982, 1748.354
217.464, 1655.422
217.946, 1580.922
218.428, 1527.844
218.911, 1491.762
219.393, 1458.436
219.875, 1424.224
220.357, 1398.538
220.839, 1388.244
221.321, 1397.900
221.803, 1412.171
222.285, 1432.330
222.768, 1457.256
223.250, 1475.664
223.732, 1482.075
224.214, 1491.137
224.696, 1514.881
225.178, 1560.598
225.660, 1603.899
226.142, 1642.056
226.624, 1674.991
227.107, 1702.896
227.589, 1723.948
228.071, 1742.707
228.553, 1762.551
229.035, 1783.773
229.517, 1803.958
229.999, 1823.777
230.481, 1843.834
230.964, 1859.634
231.446, 1865.607
231.928, 1871.970
232.410, 1890.037
232.892, 1928.020
233.374, 1963.983
233.856, 1997.112
234.338, 2028.351
234.820, 2039.262
235.303, 2011.605
235.785, 1978.988
236.267, 1981.799
236.749, 2042.255
237.231, 2099.748
237.713, 2140.492
238.195, 2164.098
238.677, 2176.652
239.159, 2177.168
239.641, 2167.691
240.124, 2149.993
240.606, 2119.396
241.088, 2088.742
241.570, 2067.738
242.052, 2066.654
242.534, 2024.443
243.016, 1917.521
243.499, 1783.728
243.981, 1681.218
244.463, 1619.952
244.945, 1572.822
245.427, 1533.005
245.909, 1502.935
246.391, 1469.342
246.873, 1428.013
247.355, 1384.425
247.837, 1351.059
248.320, 1341.224
248.802, 1319.267
249.284, 1265.539
249.766, 1159.260
250.248, 1091.807
250.730, 1077.800
251.212, 1096.489
251.695, 1107.193
252.177, 1111.941
252.659, 1107.602
253.141, 1089.634
253.623, 1047.120
254.105, 1025.655
254.587, 1031.191
255.069, 1055.606
255.551, 1079.390
256.034, 1096.793
256.516, 1123.533
256.998, 1166.270
257.480, 1225.724
257.962, 1297.010
258.444, 1377.414
258.926, 1470.181
259.408, 1585.270
259.890, 1721.421
260.373, 1881.526
260.855, 2073.902
261.337, 2311.125
261.819, 2535.920
262.301, 2736.644
262.783, 2928.415
263.265, 3150.096
263.747, 3418.711
264.229, 3684.795
264.712, 3919.813
265.194, 4103.920
265.676, 4324.990
266.158, 4597.596
266.640, 4901.646
267.122, 5169.711
267.604, 5398.408
268.086, 5606.387
268.569, 5800.598
269.051, 5979.998
269.533, 6164.359
270.015, 6369.299
270.497, 6572.569
270.979, 6714.184
271.461, 6794.448
271.943, 6817.465
272.425, 6787.711
272.908, 6707.785
273.390, 6557.298
273.872, 6320.551
274.354, 6024.996
274.836, 5745.703
275.318, 5484.449
275.800, 5222.170
276.282, 4946.013
276.764, 4653.840
277.247, 4355.275
277.729, 4030.719
278.211, 3713.562
278.693, 3495.239
279.175, 3394.598
279.657, 3301.340
280.139, 3145.166
280.621, 2923.139
281.103, 2690.682
281.586, 2444.153
282.068, 2201.719
282.550, 1997.184
283.032, 1830.801
283.514, 1689.320
283.996, 1562.527
284.478, 1452.516
284.961, 1379.658
285.443, 1351.213
285.925, 1351.355
286.407, 1364.219
286.889, 1391.894
287.371, 1389.117
287.853, 1300.769
288.335, 1143.484
288.817, 1035.766
289.299, 994.599
289.782, 995.234
290.264, 999.577
290.746, 1006.677
291.228, 1013.981
291.710, 1024.488
292.192, 1038.683
292.674, 1047.997
293.156, 1047.526
293.639, 1043.686
294.121, 1048.399
294.603, 1061.379
295.085, 1076.382
295.567, 1082.754
296.049, 1089.056
296.531, 1121.827
297.013, 1192.445
297.496, 1271.419
297.978, 1313.836
298.460, 1326.672
298.942, 1342.851
299.424, 1379.398
299.906, 1433.307
300.388, 1501.097
300.870, 1584.444
301.352, 1673.043
301.835, 1759.713
302.317, 1842.474
302.799, 1917.625
303.281, 1965.104
303.763, 2008.371
304.245, 2079.317
304.727, 2183.725
305.209, 2305.816
305.691, 2451.461
306.174, 2605.436
306.656, 2735.574
307.138, 2804.000
307.620, 2852.776
308.102, 2927.710
308.584, 3037.180
309.066, 3149.469
309.548, 3247.061
310.030, 3331.799
310.513, 3409.059
310.995, 3480.562
311.477, 3547.039
311.959, 3617.426
312.441, 3696.042
312.923, 3744.688
313.405, 3726.113
313.888, 3665.954
314.370, 3602.804
314.852, 3551.346
315.334, 3499.665
315.816, 3448.416
316.298, 3399.723
316.780, 3324.209
317.262, 3200.856
317.744, 3045.695
318.227, 2879.215
318.709, 2670.111
319.191, 2483.347
319.673, 2353.999
320.155, 2285.868
320.637, 2214.492
321.119, 2142.270
321.601, 2049.221
322.083, 1917.886
322.566, 1704.262
323.048, 1490.969
323.530, 1284.168
324.012, 1084.285
324.494, 931.472
324.976, 860.816
325.458, 822.647
325.940, 780.455
326.422, 730.718
326.905, 677.495
327.387, 622.946
327.869, 566.302
328.351, 500.139
328.833, 401.887
329.315, 310.195
329.797, 248.664
330.279, 248.422
330.762, 234.778
331.244, 197.522
331.726, 141.753
332.208, 94.528
332.690, 54.641
333.172, 24.967
333.654, 7.984
334.136, 10.598
334.618, 11.861
335.101, 13.040
335.583, 12.030
336.065, 0.118
336.547, 29.032
337.029, 55.936
337.511, 68.924
337.993, 62.822
338.475, 66.710
338.957, 86.073
339.440, 111.897
339.922, 122.383
340.404, 113.776
340.886, 107.849
341.368, 118.104
341.850, 145.866
342.332, 159.906
342.815, 156.932
343.297, 146.926
343.779, 143.664
344.261, 147.124
344.743, 155.356
345.225, 174.447
345.707, 199.209
346.189, 203.117
346.671, 184.201
347.154, 151.232
347.636, 100.222
348.118, 38.176
348.600, 1.484
349.082, 23.285
349.564, 74.119
350.046, 90.203
350.528, 72.083
351.010, 42.168
351.492, 19.152
351.975, 1.112
352.457, 28.687
352.939, 79.138
353.421, 126.602
353.903, 131.492
354.385, 99.229
354.867, 70.206
355.349, 81.247
355.832, 109.737
356.314, 125.835
356.796, 115.136
357.278, 101.441
357.760, 103.152
358.242, 117.184
358.724, 132.242
359.206, 138.729
359.689, 146.112
360.171, 161.447
360.653, 185.933
361.135, 218.294
361.617, 267.883
362.099, 324.343
362.581, 367.466
363.063, 370.469
363.545, 373.813
364.028, 399.548
364.510, 458.274
364.992, 511.571
365.474, 548.829
365.956, 576.758
366.438, 604.046
366.920, 625.383
367.402, 653.581
367.884, 697.308
368.367, 762.914
368.849, 811.601
369.331, 826.034
369.813, 832.689
370.295, 856.103
370.777, 914.094
371.259, 963.563
371.741, 993.122
372.224, 1004.001
372.706, 1029.137
373.188, 1082.103
373.670, 1131.075
374.152, 1147.556
374.634, 1113.827
375.116, 1099.235
375.598, 1120.143
376.081, 1162.678
376.563, 1173.740
377.045, 1143.502
377.527, 1112.451
378.009, 1113.341
378.491, 1149.055
378.973, 1152.108
379.455, 1109.920
379.937, 1047.960
380.419, 1017.148
380.902, 1018.494
381.384, 1009.398
381.866, 956.101
382.348, 871.473
382.830, 817.342
383.312, 797.649
383.794, 794.046
384.276, 794.711
384.759, 795.774
385.241, 782.776
385.723, 731.049
386.205, 669.088
386.687, 649.706
387.169, 671.175
387.651, 686.831
388.133, 643.067
388.616, 572.533
389.098, 525.169
389.580, 531.994
390.062, 550.290
390.544, 548.056
391.026, 528.885
391.508, 509.133
391.990, 504.664
392.472, 500.774
392.954, 484.605
393.437, 446.212
393.919, 409.638
394.401, 385.021
394.883, 368.893
395.365, 354.244
395.847, 342.694
396.329, 330.712
396.811, 316.333
397.294, 299.232
397.776, 279.150
398.258, 253.641
398.740, 226.708
399.222, 202.785
399.704, 188.000
400.186, 167.339
400.668, 134.354
401.151, 87.866
401.633, 57.238
402.115, 48.460
402.597, 48.630
403.079, 48.720
403.561, 52.073
404.043, 47.302
404.525, 32.227
405.007, 10.553
405.490, 4.990
405.972, 13.216
406.454, 18.094
406.936, 26.283
407.418, 40.129
407.900, 45.132
408.382, 35.848
408.864, 19.825
409.346, 12.538
409.829, 13.882
410.311, 14.158
410.793, 8.635
411.275, 1.449
411.757, 14.484
412.239, 29.877
412.721, 43.224
413.203, 43.158
413.685, 38.623
414.168, 52.107
414.650, 109.252
415.132, 172.522
415.614, 198.892
416.096, 191.777
416.578, 177.830
417.060, 167.587
417.543, 161.689
418.025, 162.026
418.507, 173.617
418.989, 183.136
419.471, 180.467
419.953, 169.830
420.435, 161.990
420.917, 160.029
421.399, 162.938
421.882, 171.466
422.364, 187.851
422.846, 203.367
423.328, 214.124
423.810, 224.602
424.292, 240.170
424.774, 272.370
425.256, 298.221
425.738, 311.045
426.221, 310.664
426.703, 317.009
427.185, 331.155
427.667, 350.566
428.149, 373.062
428.631, 397.551
429.113, 427.770
429.595, 466.934
430.078, 510.024
430.560, 539.308
431.042, 548.257
431.524, 569.335
432.006, 630.544
432.488, 730.409
432.970, 797.983
433.452, 826.894
433.934, 839.253
434.417, 854.869
434.899, 876.034
435.381, 919.679
435.863, 1011.015
436.345, 1121.094
436.827, 1184.670
437.309, 1203.600
437.791, 1223.994
438.273, 1283.004
438.756, 1367.565
439.238, 1458.756
439.720, 1555.742
440.202, 1651.233
440.684, 1739.108
441.166, 1820.537
441.648, 1899.417
442.130, 1981.220
442.612, 2057.537
443.095, 2116.431
443.577, 2149.328
444.059, 2197.562
444.541, 2288.090
445.023, 2396.582
445.505, 2494.258
445.987, 2578.322
446.470, 2647.449
446.952, 2691.319
447.434, 2710.356
447.916, 2755.154
448.398, 2844.825
448.880, 2942.348
449.362, 3025.430
449.844, 3085.835
450.326, 3149.062
450.809, 3220.289
451.291, 3293.588
451.773, 3351.758
452.255, 3391.438
452.737, 3428.529
453.219, 3470.007
453.701, 3516.099
454.183, 3553.234
454.665, 3578.656
455.148, 3607.747
455.630, 3656.432
456.112, 3724.256
456.594, 3807.211
457.076, 3917.194
457.558, 4031.379
458.040, 4105.352
458.522, 4143.105
459.004, 4176.041
459.487, 4220.967
459.969, 4276.516
460.451, 4343.354
460.933, 4426.615
461.415, 4504.207
461.897, 4560.501
462.379, 4598.617
462.861, 4622.241
463.344, 4614.355
463.826, 4608.324
464.308, 4626.205
464.790, 4669.718
465.272, 4700.967
465.754, 4701.107
466.236, 4691.236
466.718, 4686.147
467.201, 4689.670
467.683, 4693.806
468.165, 4698.066
468.647, 4702.400
469.129, 4706.802
469.611, 4710.268
470.093, 4714.375
470.575, 4722.795
471.057, 4739.045
471.539, 4731.291
472.022, 4689.414
472.504, 4640.121
472.986, 4626.852
473.468, 4653.855
473.950, 4647.734
474.432, 4582.380
474.914, 4476.551
475.396, 4387.060
475.879, 4313.369
476.361, 4216.527
476.843, 4041.703
477.325, 3828.251
477.807, 3663.304
478.289, 3569.884
478.771, 3483.927
479.253, 3336.016
479.736, 3151.601
480.218, 2979.679
480.700, 2847.881
481.182, 2732.169
481.664, 2614.673
482.146, 2495.823
482.628, 2392.129
483.110, 2314.613
483.592, 2251.534
484.074, 2194.638
484.557, 2163.976
485.039, 2107.539
485.521, 1995.100
486.003, 1851.796
486.485, 1740.785
486.967, 1688.684
487.449, 1638.054
487.931, 1570.158
488.414, 1483.104
488.896, 1408.888
489.378, 1354.896
489.860, 1303.151
490.342, 1232.498
490.824, 1138.571
491.306, 1063.421
491.788, 1015.705
492.271, 989.037
492.753, 974.804
493.235, 973.106
493.717, 966.358
494.199, 934.729
494.681, 887.544
495.163, 849.731
495.645, 825.410
496.127, 806.077
496.610, 783.038
497.092, 755.375
497.574, 724.163
498.056, 685.354
498.538, 654.465
499.020, 641.755
499.502, 641.540
499.984, 642.309
500.466, 660.641
500.949, 667.528
501.431, 638.850
501.913, 545.918
502.395, 492.012
502.877, 519.795
503.359, 577.662
503.841, 604.088
504.323, 577.754
504.806, 549.456
505.288, 527.398
505.770, 511.744
506.252, 497.134
506.734, 479.545
507.216, 468.210
507.698, 479.068
508.180, 513.469
508.663, 510.522
509.145, 458.328
509.627, 394.640
510.109, 372.052
510.591, 384.062
511.073, 403.825
511.555, 432.923
512.037, 458.821
512.519, 455.402
513.002, 426.705
513.484, 402.159
513.966, 407.176
514.448, 423.157
514.930, 431.000
515.412, 425.027
515.894, 416.778
516.376, 409.006
516.859, 402.579
517.341, 398.822
517.823, 410.725
518.305, 412.024
518.787, 387.949
519.269, 338.578
519.751, 305.190
520.233, 292.024
520.715, 291.013
521.198, 300.494
521.680, 328.251
522.162, 343.973
522.644, 345.721
523.126, 337.308
523.608, 323.032
524.090, 302.473
524.572, 281.860
525.054, 262.029
525.537, 244.426
526.019, 235.370
526.501, 234.662
526.983, 235.159
527.465, 230.153
527.947, 222.841
528.429, 219.913
528.911, 223.780
529.393, 226.251
529.876, 220.927
530.358, 209.807
530.840, 196.090
531.322, 174.607
531.804, 156.838
532.286, 153.482
532.768, 162.321
533.250, 159.444
533.732, 126.279
534.215, 91.188
534.697, 70.651
535.179, 78.157
535.661, 69.468
536.143, 31.730
536.625, 11.924
537.107, 29.719
537.589, 15.292
538.071, 3.103
538.554, 22.920
539.036, 40.680
539.518, 39.554
540.000, 18.200
540.482, 2.799
540.964, 13.278
541.446, 12.881
541.929, 9.254
542.411, 58.780
542.893, 93.712
543.375, 53.616
543.857, 26.357
544.339, 83.131
544.821, 83.113
545.303, 65.924
545.785, 49.915
546.268, 34.690
546.750, 18.400
547.232, 3.771
547.714, 23.935
548.196, 39.919
548.678, 53.557
549.160, 55.379
549.642, 40.763
550.125, 18.090
550.607, 7.690
551.089, 44.976
551.571, 61.445
552.053, 44.165
552.535, 9.478
553.017, 6.138
553.499, 37.911
553.981, 61.687
554.464, 44.372
554.946, 0.724
555.428, 4.453
555.910, 30.151
556.392, 59.704
556.874, 32.548
557.356, 22.157
557.838, 58.768
558.320, 67.469
558.803, 54.773
559.285, 7.489
559.767, 56.386
560.249, 101.762
560.731, 110.301
561.213, 104.849
561.695, 89.170
562.177, 63.601
562.659, 43.896
563.142, 42.716
563.624, 37.280
564.106, 12.736
564.588, 47.367
565.070, 81.384
565.552, 84.611
566.034, 68.031
566.516, 39.784
566.998, 2.002
567.481, 24.582
567.963, 14.167
568.445, 16.908
568.927, 49.304
569.409, 81.532
569.891, 98.742
570.373, 74.404
570.856, 37.490
571.338, 29.368
571.820, 56.218
572.302, 84.080
572.784, 88.415
573.266, 84.080
573.748, 86.629
574.230, 109.130
574.712, 128.112
575.195, 137.698
575.677, 140.076
576.159, 140.456
576.641, 135.158
577.123, 133.963
577.605, 141.671
578.087, 158.339
578.569, 168.851
579.052, 171.274
579.534, 173.270
580.016, 179.078
580.498, 189.057
580.980, 207.170
581.462, 234.515
581.944, 267.301
582.426, 310.207
582.908, 355.918
583.391, 381.829
583.873, 359.994
584.355, 332.602
584.837, 342.460
585.319, 380.511
585.801, 411.605
586.283, 403.242
586.765, 395.211
587.247, 413.661
587.730, 468.485
588.212, 515.321
588.694, 551.429
589.176, 575.972
589.658, 586.166
590.140, 571.963
590.622, 567.555
591.104, 580.809
591.586, 600.885
592.069, 598.863
592.551, 571.463
593.033, 563.108
593.515, 596.762
593.997, 659.615
594.479, 729.309
594.961, 803.792
595.443, 853.639
595.925, 832.433
596.408, 784.339
596.890, 767.369
597.372, 793.431
597.854, 830.167
598.336, 876.741
598.818, 917.237
599.300, 932.891
599.782, 878.470
600.265, 847.200
600.747, 875.486
601.229, 939.633
601.711, 972.178
602.193, 949.711
602.675, 932.733
603.157, 943.812
603.639, 981.551
604.122, 1007.511
604.604, 1019.431
605.086, 1031.361
605.568, 1058.955
606.050, 1096.604
606.532, 1114.486
607.014, 1104.908
607.496, 1096.253
607.979, 1124.366
608.461, 1172.837
608.943, 1212.099
609.425, 1235.376
609.907, 1246.382
610.389, 1234.654
610.871, 1208.592
611.353, 1197.046
611.835, 1220.285
612.318, 1251.684
612.800, 1287.668
613.282, 1327.904
613.764, 1342.019
614.246, 1317.733
614.728, 1289.018
615.210, 1280.442
615.692, 1292.617
616.174, 1295.391
616.657, 1283.853
617.139, 1271.646
617.621, 1278.271
618.103, 1299.648
618.585, 1315.258
619.067, 1316.903
619.549, 1312.645
620.031, 1304.851
620.513, 1297.103
620.995, 1301.285
621.478, 1334.078
621.960, 1373.467
622.442, 1406.333
622.924, 1430.504
623.406, 1450.235
623.888, 1458.281
624.370, 1467.958
624.852, 1488.496
625.335, 1533.908
625.817, 1554.566
626.299, 1542.903
626.781, 1516.805
627.263, 1494.420
627.745, 1475.075
628.227, 1485.437
628.709, 1543.610
629.192, 1617.927
629.674, 1649.268
630.156, 1645.441
630.638, 1641.186
631.120, 1666.376
631.602, 1692.087
632.084, 1683.729
632.566, 1643.977
633.049, 1615.086
633.531, 1620.510
634.013, 1640.294
634.495, 1663.933
634.977, 1695.973
635.459, 1717.587
635.941, 1728.555
636.423, 1728.434
636.905, 1714.147
637.388, 1680.062
637.870, 1650.162
638.352, 1626.372
638.834, 1609.188
639.316, 1610.174
639.798, 1625.906
640.280, 1618.320
640.762, 1555.118
641.244, 1469.618
641.727, 1413.753
