##NAMES=Bobjonesite
##RRUFFID=R060577
##IDEAL CHEMISTRY=V^4+^OSO_4_&#183;3H_2_O
##LOCALITY=Petrified log in the North Mesa 5 mine, Temple Mountain, Emery County, Utah, USA
##OWNER=RRUFF
##SOURCE=Michael Scott
##DESCRIPTION=Blue tabular crystals
##STATUS=The identification of this mineral has been confirmed by single-crystal X-ray diffraction.
##URL=rruff.info/R060577
89.78320, 0.0000000E+00
90.26532, 1.613525
90.74744, 17.03955
91.22955, 78.54688
91.71167, 162.9678
92.19379, 250.3308
92.67590, 341.0330
93.15802, 430.7083
93.64014, 511.6345
94.12225, 593.1123
94.60437, 689.1350
95.08649, 805.1157
95.56860, 930.5735
96.05072, 1051.803
96.53284, 1173.103
97.01495, 1281.582
97.49707, 1365.805
97.97919, 1430.526
98.46130, 1463.555
98.94342, 1438.479
99.42554, 1352.610
99.90765, 1246.153
100.3898, 1117.705
100.8719, 972.1631
101.3540, 820.3894
101.8361, 663.0874
102.3182, 519.7550
102.8004, 396.0002
103.2825, 293.3481
103.7646, 206.2965
104.2467, 137.1675
104.7288, 83.82581
105.2109, 42.56555
105.6931, 13.89819
106.1752, 5.344238
106.6573, 16.64551
107.1394, 17.26611
107.6215, 14.61377
108.1036, 5.261353
108.5858, 8.701538
109.0679, 15.10339
109.5500, 7.301147
110.0321, 2.770142
110.5142, 8.607056
110.9963, 11.76318
111.4785, 9.904663
111.9606, 1.617554
112.4427, 12.63232
112.9248, 28.76538
113.4069, 45.77490
113.8890, 64.63892
114.3712, 86.20605
114.8533, 108.6694
115.3354, 134.9719
115.8175, 167.1257
116.2996, 206.1707
116.7817, 245.7844
117.2639, 282.1556
117.7460, 317.9613
118.2281, 357.0527
118.7102, 404.5634
119.1923, 453.0074
119.6744, 497.3733
120.1566, 536.6047
120.6387, 574.7448
121.1208, 617.8523
121.6029, 661.9790
122.0850, 698.3073
122.5671, 725.8638
123.0493, 741.8141
123.5314, 743.5361
124.0135, 731.0715
124.4956, 704.2637
124.9777, 656.5646
125.4598, 592.0499
125.9420, 526.6329
126.4241, 466.9993
126.9062, 414.3811
127.3883, 370.5344
127.8704, 336.9565
128.3525, 312.2466
128.8347, 294.5332
129.3168, 283.7689
129.7989, 276.9517
130.2810, 272.5859
130.7631, 271.0430
131.2452, 270.2582
131.7274, 272.5591
132.2095, 275.7371
132.6916, 271.1777
133.1737, 258.2137
133.6558, 243.1611
134.1379, 231.6735
134.6201, 223.7151
135.1022, 215.1223
135.5843, 204.7473
136.0664, 192.8491
136.5485, 180.4586
137.0306, 167.1642
137.5128, 154.2098
137.9949, 142.3868
138.4770, 131.4434
138.9591, 122.7374
139.4412, 117.0629
139.9233, 114.6813
140.4055, 112.4014
140.8876, 110.7469
141.3697, 108.5752
141.8518, 103.5647
142.3339, 94.24939
142.8160, 85.38635
143.2982, 78.46936
143.7803, 73.46191
144.2624, 70.82397
144.7445, 71.31213
145.2266, 73.96643
145.7087, 76.37341
146.1909, 77.32068
146.6730, 79.64331
147.1551, 84.69421
147.6372, 100.1017
148.1193, 114.3098
148.6014, 127.3293
149.0836, 139.2228
149.5657, 150.8875
150.0478, 161.7357
150.5299, 172.6334
151.0120, 184.0159
151.4941, 197.5736
151.9763, 209.4890
152.4584, 220.7029
152.9405, 230.5970
153.4226, 236.3776
153.9047, 236.3262
154.3868, 233.1029
154.8690, 228.1285
155.3511, 221.8884
155.8332, 213.4482
156.3153, 203.2727
156.7974, 191.1869
157.2795, 175.4351
157.7617, 150.7980
158.2438, 124.8953
158.7259, 103.2710
159.2080, 91.22827
159.6901, 79.91394
160.1722, 65.90771
160.6544, 49.42847
161.1365, 35.29016
161.6186, 25.24854
162.1007, 17.98523
162.5828, 11.83301
163.0649, 7.410767
163.5471, 3.050903
164.0292, 1.909180
164.5113, 7.354858
164.9934, 13.66956
165.4755, 22.84521
165.9576, 32.18518
166.4398, 38.69666
166.9219, 40.64050
167.4040, 41.20972
167.8861, 42.63867
168.3682, 44.96667
168.8503, 46.76611
169.3325, 46.11316
169.8146, 43.73657
170.2967, 41.42981
170.7788, 41.53186
171.2609, 41.66138
171.7430, 39.19092
172.2252, 33.70996
172.7073, 27.99646
173.1894, 24.60291
173.6715, 22.69409
174.1536, 20.52527
174.6357, 17.36572
175.1179, 13.47278
175.6000, 9.069702
176.0821, 4.182373
176.5642, 1.067139
177.0463, 6.760376
177.5284, 12.78247
178.0106, 18.67126
178.4927, 23.44812
178.9748, 28.13306
179.4569, 34.32837
179.9390, 42.32092
180.4211, 51.57507
180.9033, 61.75696
181.3854, 72.88342
181.8675, 84.67651
182.3496, 97.15222
182.8317, 110.1680
183.3138, 124.1235
183.7960, 138.9884
184.2781, 154.6013
184.7602, 170.4435
185.2423, 186.6552
185.7244, 203.1669
186.2065, 219.9871
186.6887, 237.1636
187.1708, 255.3477
187.6529, 274.7898
188.1350, 294.7588
188.6171, 313.4532
189.0992, 331.0791
189.5814, 348.5468
190.0635, 365.9927
190.5456, 383.7882
191.0277, 402.7904
191.5098, 423.3158
191.9919, 444.9774
192.4741, 466.2367
192.9562, 486.9308
193.4383, 508.6870
193.9204, 531.8191
194.4025, 556.4130
194.8846, 583.9871
195.3668, 614.7357
195.8489, 648.5372
196.3310, 685.4193
196.8131, 725.5300
197.2952, 767.4446
197.7773, 810.7996
198.2595, 855.4028
198.7416, 901.6031
199.2237, 948.9294
199.7058, 997.7139
200.1879, 1048.852
200.6700, 1103.483
201.1522, 1157.688
201.6343, 1210.418
202.1164, 1262.248
202.5985, 1307.292
203.0806, 1344.481
203.5627, 1374.231
204.0449, 1397.957
204.5270, 1416.548
205.0091, 1426.144
205.4912, 1423.834
205.9733, 1409.085
206.4554, 1384.954
206.9376, 1349.948
207.4197, 1306.396
207.9018, 1261.189
208.3839, 1213.670
208.8660, 1166.020
209.3481, 1119.407
209.8303, 1072.664
210.3124, 1031.300
210.7945, 997.0154
211.2766, 968.5557
211.7587, 939.5566
212.2408, 909.7053
212.7230, 879.8523
213.2051, 850.8154
213.6872, 823.7037
214.1693, 793.1166
214.6514, 757.7859
215.1335, 718.4141
215.6157, 680.3450
216.0978, 643.8765
216.5799, 607.4700
217.0620, 569.5029
217.5441, 528.8118
218.0262, 489.4120
218.5084, 450.7339
218.9905, 413.1241
219.4726, 380.3456
219.9547, 352.8943
220.4368, 328.6729
220.9189, 306.6432
221.4011, 286.5312
221.8832, 268.5408
222.3653, 252.4440
222.8474, 238.4204
223.3295, 226.7931
223.8116, 218.1576
224.2938, 211.3420
224.7759, 205.9398
225.2580, 202.1056
225.7401, 199.6383
226.2222, 198.8096
226.7043, 199.3120
227.1865, 200.1248
227.6686, 201.3635
228.1507, 202.7710
228.6328, 204.0277
229.1149, 205.1874
229.5970, 206.3275
230.0792, 208.3802
230.5613, 210.6182
231.0434, 209.5040
231.5255, 203.3009
232.0076, 196.1313
232.4897, 190.2909
232.9719, 186.4371
233.4540, 182.4922
233.9361, 177.9166
234.4182, 173.1925
234.9003, 169.8357
235.3824, 167.5154
235.8646, 167.0046
236.3467, 168.8042
236.8288, 173.6661
237.3109, 179.2036
237.7930, 185.6923
238.2751, 192.7640
238.7573, 198.8411
239.2394, 202.2632
239.7215, 207.0013
240.2036, 215.2509
240.6857, 229.3962
241.1678, 241.5779
241.6500, 251.3834
242.1321, 259.2665
242.6142, 266.5481
243.0963, 273.2893
243.5784, 279.2672
244.0605, 284.5635
244.5427, 290.0787
245.0248, 292.6327
245.5069, 291.3777
245.9890, 287.5162
246.4711, 283.7810
246.9532, 280.8964
247.4354, 276.9287
247.9175, 270.6997
248.3996, 260.6675
248.8817, 253.3638
249.3638, 249.2395
249.8459, 247.6235
250.3281, 247.3206
250.8102, 248.3998
251.2923, 250.7209
251.7744, 254.1075
252.2565, 258.2278
252.7386, 264.7634
253.2208, 274.1490
253.7029, 285.6333
254.1850, 298.1840
254.6671, 311.5513
255.1492, 326.5383
255.6313, 343.6604
256.1135, 363.2288
256.5956, 382.2124
257.0777, 400.2666
257.5598, 417.7614
258.0419, 435.0315
258.5240, 451.5435
259.0062, 468.5320
259.4883, 486.3685
259.9704, 504.7231
260.4525, 524.0646
260.9346, 544.1257
261.4167, 565.2119
261.8989, 587.3982
262.3810, 609.8118
262.8631, 635.2607
263.3452, 664.3862
263.8273, 697.6017
264.3094, 732.1726
264.7916, 768.4587
265.2737, 806.4578
265.7558, 846.1169
266.2379, 886.0530
266.7200, 931.7163
267.2021, 985.8066
267.6843, 1047.337
268.1664, 1108.240
268.6485, 1167.134
269.1306, 1227.970
269.6127, 1294.173
270.0948, 1366.816
270.5770, 1439.142
271.0591, 1510.634
271.5412, 1580.182
272.0233, 1645.825
272.5054, 1708.138
272.9875, 1761.861
273.4697, 1804.433
273.9518, 1837.092
274.4339, 1852.377
274.9160, 1849.168
275.3981, 1828.323
275.8802, 1790.339
276.3624, 1734.445
276.8445, 1666.626
277.3266, 1587.923
277.8087, 1497.570
278.2908, 1407.531
278.7729, 1318.095
279.2551, 1230.380
279.7372, 1149.219
280.2193, 1074.679
280.7014, 1004.664
281.1835, 937.7510
281.6656, 873.9476
282.1478, 811.9572
282.6299, 750.6669
283.1120, 693.3494
283.5941, 647.0911
284.0762, 612.1332
284.5583, 579.5199
285.0405, 544.0774
285.5226, 506.4966
286.0047, 472.8940
286.4868, 443.2827
286.9689, 417.7397
287.4510, 397.6826
287.9332, 382.8805
288.4153, 368.4633
288.8974, 351.9761
289.3795, 334.4719
289.8616, 320.9554
290.3438, 311.5710
290.8259, 304.5061
291.3080, 298.0367
291.7901, 292.3104
292.2722, 287.4868
292.7543, 283.2836
293.2365, 280.2063
293.7186, 279.9188
294.2007, 282.4514
294.6828, 286.2557
295.1649, 289.9797
295.6470, 293.8265
296.1292, 298.5520
296.6113, 304.5323
297.0934, 311.2830
297.5755, 318.1858
298.0576, 325.2952
298.5397, 332.5997
299.0219, 339.5229
299.5040, 346.6157
299.9861, 355.2366
300.4682, 366.3562
300.9503, 377.9110
301.4324, 387.5265
301.9146, 395.4032
302.3967, 402.6205
302.8788, 409.4198
303.3609, 416.1458
303.8430, 423.5533
304.3251, 432.1089
304.8073, 439.9716
305.2894, 445.4817
305.7715, 448.9297
306.2536, 451.1095
306.7357, 450.8514
307.2178, 450.4503
307.7000, 452.3419
308.1821, 456.7091
308.6642, 462.2594
309.1463, 468.0835
309.6284, 474.6099
310.1105, 482.7068
310.5927, 493.5345
311.0748, 504.9570
311.5569, 515.3555
312.0390, 524.9125
312.5211, 535.0229
313.0032, 547.0116
313.4854, 559.7998
313.9675, 572.0000
314.4496, 584.4395
314.9317, 595.2500
315.4138, 603.4633
315.8959, 609.2395
316.3781, 613.7548
316.8602, 619.6583
317.3423, 623.2010
317.8244, 621.6833
318.3065, 614.8041
318.7886, 602.6564
319.2708, 583.5115
319.7529, 558.8289
320.2350, 532.7433
320.7171, 506.9402
321.1992, 480.0911
321.6813, 451.4075
322.1635, 419.9469
322.6456, 388.3854
323.1277, 356.2373
323.6098, 324.4708
324.0919, 294.5861
324.5740, 266.5000
325.0562, 240.9958
325.5383, 218.9303
326.0204, 201.2743
326.5025, 183.2089
326.9846, 162.5793
327.4667, 142.2482
327.9489, 124.9855
328.4310, 112.7396
328.9131, 101.3994
329.3952, 90.40991
329.8773, 79.79309
330.3594, 69.49121
330.8416, 59.00146
331.3237, 49.36670
331.8058, 41.42444
332.2879, 35.91101
332.7700, 30.82812
333.2521, 25.87366
333.7343, 21.10730
334.2164, 16.98694
334.6985, 13.89124
335.1806, 10.94885
335.6627, 7.574951
336.1448, 3.363892
336.6270, 5.5176001E-02
337.1091, 2.395508
337.5912, 4.019653
338.0733, 5.694458
338.5554, 7.399170
339.0375, 9.163940
339.5197, 11.07214
340.0018, 13.11523
340.4839, 14.89343
340.9660, 16.40552
341.4481, 17.56274
341.9302, 17.99158
342.4124, 17.63025
342.8945, 17.47485
343.3766, 18.14380
343.8587, 19.29175
344.3408, 18.87866
344.8229, 16.62744
345.3051, 14.60767
345.7872, 15.43323
346.2693, 18.54517
346.7514, 20.13928
347.2335, 18.99487
347.7156, 16.45972
348.1978, 14.91541
348.6799, 14.32178
349.1620, 14.31372
349.6441, 15.10754
350.1262, 16.26196
350.6083, 16.62964
351.0905, 15.93701
351.5726, 14.97437
352.0547, 14.86401
352.5368, 15.29150
353.0189, 15.30286
353.5010, 13.88965
353.9832, 12.05225
354.4653, 10.93494
354.9474, 10.59216
355.4295, 10.83521
355.9116, 12.59937
356.3937, 14.64844
356.8759, 15.08813
357.3580, 11.32043
357.8401, 7.321777
358.3222, 6.316284
358.8043, 7.798584
359.2864, 8.802490
359.7686, 7.116577
360.2507, 4.598389
360.7328, 2.868652
361.2149, 2.636475
361.6970, 2.635864
362.1791, 2.702148
362.6613, 2.658447
363.1434, 2.085693
363.6255, 0.1381840
364.1076, 2.107300
364.5897, 2.632324
365.0718, 0.8887940
365.5540, 0.1074220
366.0361, 2.409668
366.5182, 5.456055
367.0003, 6.448242
367.4824, 1.640015
367.9645, 1.697144
368.4467, 0.8489990
368.9288, 4.500854
369.4109, 6.890137
369.8930, 3.741455
370.3751, 0.3393550
370.8572, 2.220459
371.3394, 0.3198240
371.8215, 1.171387
372.3036, 1.822876
372.7857, 1.858154
373.2678, 2.029785
373.7499, 2.162231
374.2321, 2.712280
374.7142, 4.092407
375.1963, 6.723877
375.6784, 8.200073
376.1605, 7.942261
376.6426, 7.234253
377.1248, 8.346069
377.6069, 11.67175
378.0890, 14.45239
378.5711, 15.45166
379.0532, 15.02246
379.5353, 16.06299
380.0175, 18.95825
380.4996, 21.46863
380.9817, 20.79956
381.4638, 17.40552
381.9459, 15.06067
382.4280, 14.66736
382.9102, 15.55383
383.3923, 16.69177
383.8744, 18.05798
384.3565, 19.37524
384.8386, 20.31079
385.3207, 21.08191
385.8029, 22.35645
386.2850, 24.40381
386.7671, 25.92151
387.2492, 24.79822
387.7313, 22.10168
388.2134, 20.28186
388.6956, 21.87952
389.1777, 23.94910
389.6598, 23.31458
390.1419, 20.12012
390.6240, 17.37732
391.1061, 17.65332
391.5883, 19.03674
392.0704, 19.44641
392.5525, 17.27686
393.0346, 15.50012
393.5167, 16.06311
393.9988, 18.15698
394.4810, 19.48877
394.9631, 18.17615
395.4452, 16.71094
395.9273, 16.44019
396.4094, 17.92639
396.8915, 19.21777
397.3737, 19.52637
397.8558, 19.51953
398.3379, 20.04993
398.8200, 23.11987
399.3021, 24.66174
399.7842, 22.86365
400.2664, 17.77625
400.7485, 15.48035
401.2306, 17.99170
401.7127, 21.17798
402.1948, 22.35425
402.6769, 19.98083
403.1591, 19.35461
403.6412, 21.36829
404.1233, 24.64001
404.6054, 26.30286
405.0875, 26.32178
405.5696, 25.50830
406.0518, 23.83240
406.5339, 21.20837
407.0160, 18.95935
407.4981, 17.02271
407.9802, 15.50720
408.4623, 14.83289
408.9445, 15.06787
409.4266, 15.23792
409.9087, 14.99512
410.3908, 14.50098
410.8729, 14.05981
411.3550, 13.79333
411.8372, 14.06201
412.3193, 15.80603
412.8014, 18.13342
413.2835, 18.73608
413.7656, 16.87305
414.2477, 14.59290
414.7299, 14.24658
415.2120, 15.56494
415.6941, 17.24573
416.1762, 18.19666
416.6583, 19.07031
417.1404, 20.71631
417.6226, 23.29675
418.1047, 26.08069
418.5868, 29.06299
419.0689, 31.65125
419.5510, 33.36133
420.0331, 33.15857
420.5153, 33.22815
420.9974, 34.77820
421.4795, 37.39148
421.9616, 39.59753
422.4437, 41.02344
422.9258, 41.76343
423.4080, 41.74377
423.8901, 40.77991
424.3722, 40.76794
424.8543, 42.48328
425.3364, 44.53784
425.8185, 45.87207
426.3007, 46.77942
426.7828, 47.46802
427.2649, 47.40479
427.7470, 46.56628
428.2291, 46.26013
428.7112, 46.43494
429.1934, 47.74951
429.6755, 50.77966
430.1576, 55.90430
430.6397, 60.23401
431.1218, 63.58240
431.6039, 66.25977
432.0861, 68.66321
432.5682, 70.79224
433.0503, 73.31555
433.5324, 76.51111
434.0145, 80.16333
434.4966, 83.61951
434.9788, 86.94507
435.4609, 90.64392
435.9430, 94.80212
436.4251, 99.61414
436.9072, 105.8451
437.3893, 114.1149
437.8715, 122.8801
438.3536, 130.4745
438.8357, 137.0948
439.3178, 143.3051
439.7999, 147.9911
440.2820, 153.3068
440.7642, 161.5570
441.2463, 172.9332
441.7284, 184.5870
442.2105, 194.9734
442.6926, 204.9281
443.1747, 215.2567
443.6569, 226.2417
444.1390, 237.5662
444.6211, 249.2878
445.1032, 261.2788
445.5853, 272.7905
446.0674, 281.3289
446.5496, 291.6027
447.0317, 305.9901
447.5138, 326.4631
447.9959, 345.0068
448.4780, 360.4474
448.9601, 374.9856
449.4423, 391.0541
449.9244, 409.1035
450.4065, 427.3651
450.8886, 445.3350
451.3707, 463.2993
451.8528, 483.3999
452.3350, 506.4739
452.8171, 529.3943
453.2992, 550.5084
453.7813, 569.8556
454.2634, 589.8660
454.7455, 610.3828
455.2277, 632.6548
455.7098, 659.7053
456.1919, 690.6672
456.6740, 721.7484
457.1561, 751.1869
457.6382, 779.6809
458.1204, 807.1455
458.6025, 833.9717
459.0846, 860.9315
459.5667, 890.0966
460.0488, 919.4612
460.5309, 946.5220
461.0131, 970.6561
461.4952, 993.4561
461.9773, 1017.252
462.4594, 1039.811
462.9415, 1058.167
463.4236, 1070.240
463.9058, 1078.441
464.3879, 1083.543
464.8700, 1085.533
465.3521, 1085.047
465.8342, 1082.918
466.3163, 1077.827
466.7985, 1068.838
467.2806, 1053.984
467.7627, 1038.672
468.2448, 1022.826
468.7269, 1006.778
469.2090, 990.5625
469.6912, 972.5688
470.1733, 957.1311
470.6554, 945.8674
471.1375, 938.3011
471.6196, 929.2932
472.1017, 917.6570
472.5839, 907.8733
473.0660, 904.0869
473.5481, 906.3947
474.0302, 905.8389
474.5123, 901.1780
474.9944, 895.0886
475.4766, 892.2572
475.9587, 892.0170
476.4408, 889.9861
476.9229, 884.6659
477.4050, 876.4452
477.8871, 865.6055
478.3693, 852.2601
478.8514, 837.2649
479.3335, 821.7583
479.8156, 804.6403
480.2977, 784.5548
480.7798, 760.9692
481.2620, 735.6577
481.7441, 708.7162
482.2262, 680.8994
482.7083, 653.3284
483.1904, 625.9260
483.6725, 599.0842
484.1547, 573.2581
484.6368, 548.4738
485.1189, 523.7921
485.6010, 497.3680
486.0831, 472.3104
486.5652, 450.5438
487.0474, 433.8837
487.5295, 416.1815
488.0116, 396.5297
488.4937, 376.7068
488.9758, 359.0345
489.4579, 343.7776
489.9401, 329.8154
490.4222, 316.9049
490.9043, 305.0314
491.3864, 293.7767
491.8685, 283.1970
492.3506, 272.5621
492.8328, 260.7742
493.3149, 248.3845
493.7970, 237.7261
494.2791, 229.0349
494.7612, 221.7562
495.2433, 215.4937
495.7255, 210.0286
496.2076, 204.8458
496.6897, 200.5111
497.1718, 195.7075
497.6539, 188.3538
498.1360, 179.3905
498.6182, 171.8894
499.1003, 168.3987
499.5824, 165.9875
500.0645, 162.7379
500.5466, 158.1163
501.0287, 153.9326
501.5109, 151.1265
501.9930, 149.1029
502.4751, 147.0952
502.9572, 144.8656
503.4393, 142.0122
503.9214, 138.2103
504.4036, 133.9620
504.8857, 130.5846
505.3678, 128.2836
505.8499, 126.8151
506.3320, 126.0006
506.8141, 125.5953
507.2963, 125.6964
507.7784, 126.9740
508.2605, 127.8546
508.7426, 125.8993
509.2247, 121.2565
509.7068, 117.7356
510.1890, 116.2135
510.6711, 115.5417
511.1532, 113.9879
511.6353, 111.9578
512.1174, 110.4966
512.5995, 110.5283
513.0817, 110.7252
513.5638, 109.4424
514.0459, 106.7118
514.5280, 103.9452
515.0101, 101.7396
515.4922, 100.2970
515.9744, 100.0219
516.4565, 102.1553
516.9386, 103.2104
517.4207, 100.5609
517.9028, 96.13208
518.3849, 93.28101
518.8671, 94.19128
519.3492, 95.24341
519.8313, 95.86682
520.3134, 96.00427
520.7955, 95.17493
521.2776, 93.01880
521.7598, 90.51160
522.2419, 87.96155
522.7240, 85.12427
523.2061, 83.64099
523.6882, 84.01062
524.1703, 84.69897
524.6525, 83.51819
525.1346, 80.58704
525.6167, 77.73657
526.0988, 75.62378
526.5809, 73.75659
527.0630, 71.08484
527.5452, 67.77954
528.0273, 64.69080
528.5094, 62.09937
528.9915, 60.10632
529.4736, 59.15442
529.9557, 59.31689
530.4379, 58.96265
530.9200, 56.57239
531.4021, 53.40527
531.8842, 50.71411
532.3663, 49.26904
532.8484, 47.60596
533.3306, 45.15283
533.8127, 42.23047
534.2948, 39.59814
534.7769, 37.38025
535.2590, 35.34229
535.7411, 33.47607
536.2233, 31.79651
536.7054, 30.12866
537.1875, 28.43420
537.6696, 26.91846
538.1517, 25.79517
538.6339, 25.13037
539.1160, 24.25293
539.5981, 23.07800
540.0802, 21.88550
540.5623, 21.29614
541.0444, 21.11230
541.5266, 20.12866
542.0087, 17.46326
542.4908, 14.37805
542.9729, 13.07666
543.4550, 13.09265
543.9371, 12.53955
544.4193, 8.654541
544.9014, 4.852661
545.3835, 4.789551
545.8656, 8.995483
546.3477, 11.92517
546.8298, 9.606812
547.3120, 6.008301
547.7941, 4.453613
548.2762, 8.271606
548.7583, 10.25427
549.2404, 8.770752
549.7225, 5.463867
550.2047, 3.112549
550.6868, 2.172729
551.1689, 1.279419
551.6510, 2.6489001E-02
552.1331, 1.580688
552.6152, 2.114258
553.0974, 1.407715
553.5795, 0.6772460
554.0616, 0.4736330
554.5437, 0.8339840
555.0258, 2.485229
555.5079, 5.679199
555.9901, 8.556152
556.4722, 8.782837
556.9543, 7.310303
557.4364, 6.030884
557.9185, 5.138184
558.4006, 5.197998
558.8828, 8.058350
559.3649, 12.24158
559.8470, 14.37524
560.3291, 11.05750
560.8112, 7.308838
561.2933, 5.203247
561.7755, 4.878784
