##NAMES=Botallackite
##RRUFFID=R070066
##IDEAL CHEMISTRY=Cu_2_Cl(OH)_3_
##LOCALITY=Levante mine, St. Just, Cornwall, England
##OWNER=RRUFF
##SOURCE=Bob Jenkins
##DESCRIPTION=Pale greenish blue bladed crystals
##STATUS=The identification of this mineral is confirmed by single-crystal X-ray diffraction and chemical analysis.
##URL=rruff.info/R070066
##MEASURED CHEMISTRY=Cu_2.01_Cl_0.99_(OH)_3_
156.5045, 0.0000000E+00
156.9867, 11.80151
157.4688, 23.06360
157.9509, 40.92322
158.4330, 34.07080
158.9151, 10.35791
159.3972, 1.270996
159.8794, 9.587769
160.3615, 23.36340
160.8436, 31.71936
161.3257, 32.19873
161.8078, 22.69238
162.2899, 13.28674
162.7721, 6.614136
163.2542, 5.848755
163.7363, 17.68164
164.2184, 35.27448
164.7005, 46.47510
165.1826, 44.19135
165.6648, 32.62811
166.1469, 31.46527
166.6290, 45.88934
167.1111, 64.81848
167.5932, 91.74780
168.0753, 123.0333
168.5575, 149.9182
169.0396, 167.2491
169.5217, 178.4076
170.0038, 197.3730
170.4859, 222.2274
170.9680, 258.8971
171.4502, 294.6813
171.9323, 329.9138
172.4144, 369.5946
172.8965, 417.3189
173.3786, 466.8288
173.8607, 487.4678
174.3429, 466.9319
174.8250, 435.8931
175.3071, 392.2863
175.7892, 343.4320
176.2713, 300.6847
176.7534, 269.4556
177.2356, 245.6924
177.7177, 215.6804
178.1998, 171.6437
178.6819, 132.6263
179.1640, 104.4119
179.6461, 84.44446
180.1283, 69.90765
180.6104, 60.68616
181.0925, 55.10571
181.5746, 48.52472
182.0567, 41.58521
182.5388, 32.52448
183.0210, 3.719727
183.5031, 15.41125
183.9852, 19.14667
184.4673, 15.44452
184.9494, 17.06653
185.4315, 12.31268
185.9137, 22.24249
186.3958, 7.872375
186.8779, 11.11694
187.3600, 14.94550
187.8421, 2.009338
188.3242, 19.26404
188.8064, 2.605591
189.2885, 1.071472
189.7706, 7.403870
190.2527, 0.8871460
190.7348, 0.9879760
191.2169, 12.15436
191.6991, 16.99872
192.1812, 8.794739
192.6633, 17.76587
193.1454, 14.58807
193.6275, 25.15070
194.1096, 31.06226
194.5918, 26.88519
195.0739, 18.33759
195.5560, 16.30237
196.0381, 24.44177
196.5202, 36.04468
197.0023, 43.17975
197.4845, 46.36810
197.9666, 46.82971
198.4487, 41.74304
198.9308, 34.87750
199.4129, 33.91461
199.8950, 41.63098
200.3772, 50.11005
200.8593, 47.59894
201.3414, 36.15149
201.8235, 29.89478
202.3056, 36.63531
202.7877, 49.78131
203.2699, 60.02844
203.7520, 66.42603
204.2341, 69.62970
204.7162, 69.17310
205.1983, 65.73743
205.6804, 61.27289
206.1626, 54.47284
206.6447, 47.61920
207.1268, 43.87952
207.6089, 43.68207
208.0910, 45.32251
208.5731, 48.72186
209.0553, 53.09631
209.5374, 55.99463
210.0195, 52.70331
210.5016, 49.87244
210.9837, 57.95044
211.4658, 78.48407
211.9480, 96.59125
212.4301, 101.2309
212.9122, 95.95685
213.3943, 88.99738
213.8764, 79.57019
214.3585, 73.25861
214.8407, 68.31604
215.3228, 64.65948
215.8049, 66.14227
216.2870, 79.81238
216.7691, 98.54376
217.2512, 107.4464
217.7334, 99.10486
218.2155, 89.73346
218.6976, 96.16058
219.1797, 117.0462
219.6618, 132.4205
220.1439, 129.7858
220.6261, 118.3319
221.1082, 115.1765
221.5903, 124.1108
222.0724, 134.3957
222.5545, 136.0462
223.0366, 131.0408
223.5188, 133.4667
224.0009, 153.9264
224.4830, 178.6000
224.9651, 184.8650
225.4472, 167.9821
225.9293, 154.1603
226.4115, 161.5602
226.8936, 184.6348
227.3757, 203.6273
227.8578, 212.0193
228.3399, 216.8659
228.8220, 228.4393
229.3041, 247.1202
229.7863, 261.9730
230.2684, 263.7311
230.7505, 258.6119
231.2326, 261.0083
231.7147, 274.4557
232.1968, 293.6245
232.6790, 315.5460
233.1611, 339.6274
233.6432, 359.9764
234.1253, 368.4412
234.6074, 374.0580
235.0895, 393.5256
235.5717, 431.1382
236.0538, 469.7136
236.5359, 492.1917
237.0180, 502.0656
237.5001, 513.7144
237.9822, 529.6962
238.4644, 548.9268
238.9465, 570.7717
239.4286, 595.2078
239.9107, 620.0594
240.3928, 643.1143
240.8749, 664.9620
241.3571, 689.6307
241.8392, 718.4026
242.3213, 748.7537
242.8034, 781.5943
243.2855, 817.2887
243.7676, 841.3745
244.2498, 842.7601
244.7319, 830.1512
245.2140, 833.0840
245.6961, 862.6055
246.1782, 891.9545
246.6603, 910.2827
247.1425, 919.2037
247.6246, 928.4162
248.1067, 943.1803
248.5888, 957.4702
249.0709, 958.9260
249.5530, 945.9373
250.0352, 927.6276
250.5173, 904.6064
250.9994, 879.0172
251.4815, 855.9072
251.9636, 837.5395
252.4457, 818.8263
252.9279, 790.7282
253.4100, 751.2445
253.8921, 715.5753
254.3742, 691.3175
254.8563, 669.9114
255.3384, 639.3256
255.8206, 597.3146
256.3027, 554.4382
256.7848, 522.6482
257.2669, 503.7141
257.7490, 481.7245
258.2311, 454.6780
258.7133, 425.5358
259.1954, 393.2664
259.6775, 359.2349
260.1596, 331.5383
260.6417, 317.9639
261.1238, 318.0632
261.6060, 312.2873
262.0881, 296.3456
262.5702, 279.4568
263.0523, 265.2274
263.5344, 253.5298
264.0165, 243.5539
264.4987, 234.9196
264.9808, 227.5164
265.4629, 220.7034
265.9450, 217.2975
266.4271, 211.1212
266.9092, 197.0294
267.3914, 180.4163
267.8735, 169.2374
268.3556, 166.6467
268.8377, 169.8198
269.3198, 173.0442
269.8019, 178.8658
270.2841, 180.2876
270.7662, 171.5923
271.2483, 161.7361
271.7304, 160.9774
272.2125, 170.5235
272.6946, 180.8474
273.1768, 179.6018
273.6589, 162.3834
274.1410, 147.3921
274.6231, 129.9578
275.1052, 118.1896
275.5873, 120.3794
276.0695, 133.6615
276.5516, 146.5403
277.0337, 148.5158
277.5158, 139.1866
277.9979, 136.3616
278.4800, 152.5219
278.9622, 161.6342
279.4443, 149.4166
279.9264, 126.0873
280.4085, 110.4232
280.8906, 114.0515
281.3727, 131.8115
281.8549, 139.1613
282.3370, 124.6968
282.8191, 112.8344
283.3012, 109.1855
283.7833, 109.4328
284.2654, 108.6768
284.7476, 105.0160
285.2297, 100.0676
285.7118, 97.18988
286.1939, 98.07477
286.6760, 96.24750
287.1581, 87.41119
287.6403, 78.92358
288.1224, 76.56445
288.6045, 80.66803
289.0866, 85.69354
289.5687, 85.29700
290.0508, 78.63812
290.5330, 73.29803
291.0151, 68.38977
291.4972, 66.27142
291.9793, 70.38586
292.4614, 78.20477
292.9435, 83.57495
293.4257, 79.60480
293.9078, 69.11072
294.3899, 63.33783
294.8720, 64.31207
295.3541, 67.05511
295.8362, 70.31891
296.3184, 72.74744
296.8005, 72.53467
297.2826, 67.84430
297.7647, 64.45483
298.2468, 72.33612
298.7289, 92.93860
299.2111, 103.5590
299.6932, 87.10742
300.1753, 65.07758
300.6574, 60.38831
301.1395, 75.91150
301.6216, 91.85168
302.1038, 93.33466
302.5859, 84.17297
303.0680, 77.75690
303.5501, 76.78339
304.0322, 78.90930
304.5143, 83.12982
304.9964, 88.66339
305.4785, 91.19495
305.9607, 86.83459
306.4428, 80.17780
306.9249, 77.24017
307.4070, 78.53284
307.8891, 81.68243
308.3712, 85.57837
308.8534, 90.06909
309.3355, 94.21674
309.8176, 98.90936
310.2997, 102.4236
310.7818, 103.4003
311.2639, 102.3028
311.7461, 100.4785
312.2282, 98.24805
312.7103, 96.14600
313.1924, 95.85229
313.6745, 98.93555
314.1566, 100.4535
314.6388, 96.05573
315.1209, 90.95380
315.6030, 93.46503
316.0851, 105.3235
316.5672, 118.0485
317.0493, 120.5376
317.5315, 108.8860
318.0136, 100.5308
318.4957, 97.21014
318.9778, 95.42822
319.4599, 93.50159
319.9420, 91.31970
320.4242, 89.29254
320.9063, 87.69391
321.3884, 86.54395
321.8705, 86.17688
322.3526, 89.48010
322.8347, 90.26959
323.3169, 86.41528
323.7990, 79.76398
324.2811, 72.05634
324.7632, 64.02820
325.2453, 56.69849
325.7274, 52.29431
326.2096, 52.05359
326.6917, 52.14801
327.1738, 52.42065
327.6559, 52.80127
328.1380, 53.82300
328.6201, 55.20276
329.1023, 55.51459
329.5844, 53.48828
330.0665, 49.09082
330.5486, 42.60016
331.0307, 31.20013
331.5128, 21.19849
331.9950, 15.51373
332.4771, 13.01862
332.9592, 11.74469
333.4413, 11.14703
333.9234, 10.73309
334.4055, 8.714478
334.8877, 4.079956
335.3698, 2.486328
335.8519, 10.07581
336.3340, 19.91614
336.8161, 25.50458
337.2982, 26.09100
337.7804, 21.85291
338.2625, 8.535339
338.7446, 10.74286
339.2267, 21.24054
339.7088, 17.14362
340.1909, 8.679199
340.6731, 7.514587
341.1552, 12.70306
341.6373, 16.42004
342.1194, 16.13245
342.6015, 13.60052
343.0836, 10.06122
343.5658, 5.708252
344.0479, 1.992493
344.5300, 0.5623780
345.0121, 1.538574
345.4942, 0.6473390
345.9763, 10.61188
346.4585, 18.34222
346.9406, 20.77704
347.4227, 18.40741
347.9048, 9.809082
348.3869, 6.102783
348.8690, 21.98596
349.3512, 23.98749
349.8333, 0.3162230
350.3154, 13.95245
350.7975, 8.507202
351.2796, 0.8095090
351.7617, 2.381165
352.2439, 3.619934
352.7260, 8.740845
353.2081, 4.609070
353.6902, 8.704163
354.1723, 13.54858
354.6544, 1.832214
355.1366, 13.57996
355.6187, 14.28778
356.1008, 9.417847
356.5829, 7.103943
357.0650, 11.06500
357.5471, 17.22144
358.0293, 17.54974
358.5114, 10.22095
358.9935, 2.924744
359.4756, 5.976196
359.9577, 12.33350
360.4398, 11.81683
360.9220, 5.096069
361.4041, 1.557861
361.8862, 3.799500
362.3683, 1.979431
362.8504, 2.946228
363.3326, 12.84326
363.8147, 21.70990
364.2968, 24.28009
364.7789, 23.66547
365.2610, 25.26910
365.7431, 31.81152
366.2253, 39.26208
366.7074, 44.47736
367.1895, 47.43018
367.6716, 47.38422
368.1537, 42.71478
368.6358, 36.68225
369.1180, 34.70331
369.6001, 36.79034
370.0822, 40.97321
370.5643, 46.85095
371.0464, 54.47205
371.5285, 64.59888
372.0107, 77.10095
372.4928, 89.84406
372.9749, 101.1916
373.4570, 111.0807
373.9391, 119.3224
374.4212, 124.8950
374.9034, 130.1700
375.3855, 134.2995
375.8676, 139.0057
376.3497, 146.9281
376.8318, 159.2496
377.3139, 175.1237
377.7961, 193.8863
378.2782, 220.9904
378.7603, 239.8696
379.2424, 241.0060
379.7245, 242.7600
380.2066, 258.1723
380.6888, 286.1109
381.1709, 315.5639
381.6530, 336.0701
382.1351, 349.6635
382.6172, 373.8260
383.0993, 416.4876
383.5815, 456.8395
384.0636, 483.8307
384.5457, 506.2280
385.0278, 534.9611
385.5099, 574.1232
385.9920, 616.7691
386.4742, 655.1213
386.9563, 689.5020
387.4384, 726.0375
387.9205, 767.9688
388.4026, 810.1746
388.8847, 845.4572
389.3669, 874.9945
389.8490, 909.0530
390.3311, 954.1631
390.8132, 1004.183
391.2953, 1051.750
391.7774, 1096.847
392.2596, 1142.875
392.7417, 1192.982
393.2238, 1245.139
393.7059, 1289.673
394.1880, 1326.663
394.6701, 1357.215
395.1523, 1376.173
395.6344, 1391.075
396.1165, 1415.408
396.5986, 1450.435
397.0807, 1479.946
397.5628, 1483.970
398.0450, 1458.216
398.5271, 1429.618
399.0092, 1393.087
399.4913, 1358.618
399.9734, 1335.008
400.4555, 1316.062
400.9377, 1290.006
401.4197, 1250.510
401.9019, 1200.725
402.3840, 1146.288
402.8661, 1084.187
403.3482, 1025.799
403.8303, 976.4371
404.3124, 928.3171
404.7946, 873.9261
405.2767, 814.3807
405.7588, 760.8297
406.2409, 724.5297
406.7230, 699.8735
407.2051, 669.1590
407.6873, 629.9387
408.1694, 589.2782
408.6515, 550.8126
409.1336, 515.9879
409.6157, 487.6937
410.0978, 469.3035
410.5800, 451.4731
411.0621, 427.8484
411.5442, 401.0657
412.0263, 376.4094
412.5084, 355.5303
412.9905, 335.1445
413.4727, 311.0623
413.9548, 281.1014
414.4369, 262.1478
414.9190, 265.9446
415.4011, 269.5006
415.8832, 257.2207
416.3654, 234.2972
416.8475, 215.1540
417.3296, 207.9867
417.8117, 208.9145
418.2938, 206.4844
418.7759, 199.6425
419.2581, 190.7575
419.7402, 174.0945
420.2223, 160.4255
420.7044, 161.1861
421.1865, 174.5028
421.6686, 185.8312
422.1508, 179.5908
422.6329, 159.3869
423.1150, 151.4317
423.5971, 161.5151
424.0792, 171.9135
424.5613, 172.0126
425.0435, 168.7697
425.5256, 171.0879
426.0077, 182.0374
426.4898, 194.6583
426.9719, 205.4364
427.4540, 213.6526
427.9362, 214.8925
428.4183, 205.8313
428.9004, 198.1608
429.3825, 205.9312
429.8646, 229.1812
430.3467, 247.8444
430.8289, 254.4368
431.3110, 261.9130
431.7931, 280.2804
432.2752, 305.6703
432.7573, 327.8317
433.2394, 341.9598
433.7216, 351.1396
434.2037, 361.3369
434.6858, 367.3235
435.1679, 384.8287
435.6500, 425.5011
436.1321, 466.3950
436.6143, 491.0192
437.0964, 502.7424
437.5785, 516.7143
438.0606, 544.1797
438.5427, 581.5643
439.0248, 614.6230
439.5070, 641.0390
439.9891, 669.2441
440.4712, 708.4634
440.9533, 746.7672
441.4354, 771.9401
441.9175, 782.1781
442.3997, 791.8868
442.8818, 810.4846
443.3639, 835.8332
443.8460, 865.2654
444.3281, 900.0575
444.8102, 928.1932
445.2924, 940.1683
445.7745, 937.7165
446.2566, 933.7670
446.7387, 934.7699
447.2208, 926.6035
447.7029, 900.8272
448.1851, 863.6301
448.6672, 821.8115
449.1493, 777.8750
449.6314, 735.6555
450.1135, 700.4466
450.5956, 673.6001
451.0778, 645.7884
451.5599, 623.0595
452.0420, 593.0681
452.5241, 546.1513
453.0062, 491.0164
453.4883, 439.7130
453.9705, 397.1926
454.4526, 361.9114
454.9347, 331.0430
455.4168, 304.4446
455.8989, 285.3961
456.3810, 281.9197
456.8632, 277.3283
457.3453, 258.6441
457.8274, 229.2591
458.3095, 201.0074
458.7916, 176.1405
459.2737, 156.0992
459.7559, 145.7373
460.2380, 143.2138
460.7201, 134.7047
461.2022, 112.7362
461.6843, 86.39264
462.1664, 73.46967
462.6486, 79.71649
463.1307, 78.92572
463.6128, 63.16626
464.0949, 44.24664
464.5770, 28.60480
465.0591, 17.37732
465.5413, 11.70990
466.0234, 12.95325
466.5055, 18.18701
466.9876, 16.80920
467.4697, 2.011230
467.9518, 6.300232
468.4340, 1.297729
468.9161, 6.420654
469.3982, 9.852600
469.8803, 8.894165
470.3624, 7.641052
470.8445, 11.58557
471.3267, 17.88434
471.8088, 16.55884
472.2909, 5.419312
472.7730, 5.239502
473.2551, 12.35168
473.7372, 14.62537
474.2194, 8.782349
474.7015, 8.587891
475.1836, 20.15344
475.6657, 11.31714
476.1478, 2.635132
476.6299, 0.6116940
477.1121, 21.43652
477.5942, 41.09796
478.0763, 44.01819
478.5584, 32.18884
479.0405, 26.84009
479.5226, 30.15717
480.0048, 37.76117
480.4869, 53.63336
480.9690, 70.94476
481.4511, 83.03613
481.9332, 89.65900
482.4153, 95.77283
482.8975, 108.0698
483.3796, 124.5661
483.8617, 128.6531
484.3438, 112.6399
484.8259, 101.7946
485.3080, 112.0874
485.7902, 130.9405
486.2723, 144.6898
486.7544, 150.3627
487.2365, 158.3290
487.7186, 178.3636
488.2007, 203.8669
488.6829, 222.9387
489.1650, 234.1519
489.6471, 241.4032
490.1292, 244.8597
490.6113, 245.1508
491.0934, 252.0602
491.5756, 272.4233
492.0577, 290.6045
492.5398, 301.0709
493.0219, 309.0521
493.5040, 322.3312
493.9861, 341.5974
494.4683, 358.7191
494.9504, 363.4769
495.4325, 355.0652
495.9146, 348.3924
496.3967, 342.6473
496.8788, 341.1898
497.3610, 349.4817
497.8431, 359.9572
498.3252, 364.8538
498.8073, 362.6737
499.2894, 357.9586
499.7715, 354.0636
500.2536, 349.8138
500.7357, 341.5266
501.2179, 328.7919
501.7000, 317.9807
502.1821, 314.3816
502.6642, 315.2483
503.1463, 308.7773
503.6284, 288.6990
504.1106, 271.6992
504.5927, 261.6749
505.0748, 255.6504
505.5569, 252.8039
506.0390, 251.2885
506.5211, 246.2720
507.0033, 232.6706
507.4854, 212.2064
507.9675, 196.4810
508.4496, 187.2404
508.9317, 179.5561
509.4138, 172.1179
509.8960, 165.7054
510.3781, 161.6514
510.8602, 159.9484
511.3423, 157.8011
511.8244, 153.3129
512.3066, 147.1910
512.7887, 140.9545
513.2708, 134.6656
513.7529, 127.1209
514.2350, 116.7318
514.7172, 105.3536
515.1993, 98.47565
515.6814, 98.87244
516.1635, 96.81439
516.6456, 89.76160
517.1277, 80.82159
517.6099, 72.55981
518.0920, 64.79144
518.5741, 55.20776
519.0562, 41.74286
519.5383, 27.26324
520.0204, 21.24750
520.5026, 27.28040
520.9847, 31.87982
521.4668, 34.35315
521.9489, 33.50800
522.4310, 25.04456
522.9131, 11.37402
523.3953, 2.860657
523.8774, 8.208130
524.3595, 18.56079
524.8416, 24.17957
525.3237, 25.10107
525.8058, 20.24219
526.2880, 7.682007
526.7701, 6.027893
527.2522, 10.30560
527.7343, 1.127686
528.2164, 2.981506
528.6985, 4.745117
529.1807, 10.97491
529.6628, 5.938538
530.1449, 4.794983
530.6270, 9.947693
531.1091, 4.804626
531.5912, 4.459290
532.0734, 8.486450
532.5555, 6.809143
533.0376, 3.545593
533.5197, 4.460022
534.0018, 9.053162
534.4839, 0.1547850
534.9661, 14.14935
535.4482, 17.12170
535.9303, 0.6475220
536.4124, 19.54272
536.8945, 26.02924
537.3766, 23.60431
537.8588, 17.26373
538.3409, 8.164978
538.8230, 0.2053220
539.3051, 3.176208
539.7872, 2.109375
540.2693, 0.5456540
540.7515, 7.924927
541.2336, 12.99567
541.7157, 13.65564
542.1978, 12.33923
542.6799, 10.71790
543.1620, 9.385559
543.6442, 8.983826
544.1263, 10.61212
544.6084, 13.50439
545.0905, 15.39362
545.5726, 16.74298
546.0547, 14.22748
546.5369, 3.144043
547.0190, 9.576843
547.5011, 13.08502
547.9832, 6.167419
548.4653, 0.3734130
548.9474, 0.9622190
549.4296, 3.325623
549.9116, 0.1020510
550.3937, 6.699341
550.8759, 5.419495
551.3580, 9.709534
551.8401, 28.46094
552.3222, 28.49994
552.8043, 0.9721680
553.2864, 19.37726
553.7686, 15.83209
554.2507, 11.27820
554.7328, 15.47260
555.2149, 24.10388
555.6970, 28.03540
556.1791, 23.06299
556.6613, 15.63379
557.1434, 12.50854
557.6255, 12.34143
558.1076, 9.774719
558.5897, 3.470154
559.0718, 2.179321
559.5540, 4.427124
560.0361, 3.107483
560.5182, 2.629089
561.0003, 22.25336
561.4824, 33.42523
561.9645, 23.90698
562.4467, 9.321716
562.9288, 5.637573
563.4109, 13.64282
563.8930, 22.39160
564.3751, 22.30725
564.8572, 17.02643
565.3394, 21.25171
565.8215, 38.33435
566.3036, 50.28888
566.7857, 50.57654
567.2678, 44.64716
567.7499, 37.21039
568.2321, 28.43475
568.7142, 21.95685
569.1963, 20.61707
569.6784, 20.36615
570.1605, 17.62836
570.6426, 13.50403
571.1248, 10.88129
571.6069, 10.76471
572.0890, 12.24249
572.5711, 13.86066
573.0532, 15.23529
573.5353, 19.47345
574.0175, 32.10120
574.4996, 40.67725
574.9817, 40.24896
575.4638, 34.64301
575.9459, 28.02063
576.4280, 21.28546
576.9102, 15.09747
577.3923, 7.515686
577.8744, 1.443970
578.3565, 5.871704
578.8386, 21.04205
579.3207, 31.71283
579.8029, 27.96301
580.2850, 16.34412
580.7671, 13.36304
581.2492, 25.39252
581.7313, 34.74194
582.2134, 42.93604
582.6956, 46.99384
583.1777, 43.50714
583.6598, 34.64819
584.1419, 23.94586
584.6240, 12.28400
585.1061, 3.193970
585.5883, 3.617737
586.0704, 12.77954
586.5525, 22.77094
587.0346, 34.70837
587.5167, 42.08008
587.9988, 36.33563
588.4810, 21.59277
588.9631, 14.72815
589.4452, 21.70233
589.9273, 27.28729
590.4094, 26.55060
590.8915, 22.91223
591.3737, 19.69507
591.8558, 17.00983
592.3379, 13.17407
592.8200, 5.780762
593.3021, 2.432922
593.7842, 3.056030
594.2664, 4.922852
594.7485, 12.47424
595.2306, 19.47107
595.7127, 24.16803
596.1948, 23.37695
596.6769, 18.96118
597.1591, 18.36981
597.6412, 28.58551
598.1233, 37.91425
598.6054, 35.97223
599.0875, 28.08429
599.5696, 24.33801
600.0518, 26.77759
600.5339, 31.33118
601.0160, 34.51147
601.4981, 36.30157
601.9802, 36.63354
602.4623, 36.57086
602.9445, 33.06421
603.4266, 21.54468
603.9087, 9.810364
604.3908, 4.120605
604.8729, 3.370117
605.3550, 2.959167
605.8372, 3.211304
606.3193, 6.169495
606.8014, 11.74921
607.2835, 42.67126
607.7656, 55.43866
608.2477, 39.67169
608.7299, 16.05121
609.2120, 7.488098
609.6941, 14.66028
610.1762, 16.85089
610.6583, 10.81567
611.1404, 6.358154
611.6226, 5.241577
612.1047, 6.137329
612.5868, 8.167358
613.0689, 10.98395
613.5510, 13.85931
614.0331, 16.48370
614.5153, 18.73456
614.9974, 20.97089
615.4795, 23.00659
615.9616, 21.76019
616.4437, 4.584839
616.9258, 17.41339
617.4080, 24.32703
617.8901, 25.85956
618.3722, 5.934204
618.8543, 14.47180
619.3364, 11.72864
619.8185, 8.519592
620.3007, 20.91388
620.7828, 4.249268
621.2649, 16.46094
621.7470, 17.24078
622.2291, 23.25793
622.7112, 17.91461
623.1934, 16.08319
623.6755, 25.59967
624.1576, 28.82812
624.6397, 22.17670
625.1218, 28.50909
625.6039, 11.63538
626.0861, 15.11981
626.5682, 27.38605
627.0503, 21.28394
627.5324, 27.80023
628.0145, 29.49323
