##NAMES=Boulangerite
##RRUFFID=R050436
##IDEAL CHEMISTRY=Pb_5_Sb_4_S_11_
##LOCALITY=Noche Buena mine, Noche Buena, Municipio de Mazapil, Zacatecas, Mexico
##OWNER=RRUFF
##SOURCE=University of Arizona Mineral Museum
##DESCRIPTION=Mass of lead-gray acicular crystals
##STATUS=The identification of this mineral is confirmed by single-crystal X-ray diffraction and chemical analysis.
##URL=rruff.info/R050436
##MEASURED CHEMISTRY=Pb_5.00_Sb_4.00_S_11.00_
218.427, 0.000
218.909, 4.350
219.391, 10.214
219.874, 19.783
220.356, 21.890
220.838, 11.915
221.320, 1.812
221.802, 3.972
222.284, 15.833
222.766, 20.833
223.248, 27.387
223.731, 37.324
224.213, 35.770
224.695, 14.295
225.177, 10.725
225.659, 16.152
226.141, 9.590
226.623, 33.313
227.105, 45.229
227.587, 43.369
228.070, 41.375
228.552, 41.222
229.034, 37.775
229.516, 35.195
229.998, 28.745
230.480, 14.985
230.962, 25.925
231.444, 31.150
231.926, 30.972
232.409, 8.551
232.891, 15.324
233.373, 10.670
233.855, 5.718
234.337, 17.106
234.819, 1.154
235.301, 10.282
235.783, 10.065
236.266, 7.250
236.748, 20.651
237.230, 20.806
237.712, 4.061
238.194, 23.339
238.676, 23.667
239.158, 4.695
239.640, 20.286
240.122, 15.400
240.605, 1.498
241.087, 0.723
241.569, 15.970
242.051, 40.216
242.533, 74.970
243.015, 131.814
243.497, 163.097
243.980, 153.416
244.462, 124.221
244.944, 124.016
245.426, 172.978
245.908, 218.947
246.390, 238.934
246.872, 217.433
247.354, 210.407
247.836, 221.417
248.318, 244.813
248.801, 268.465
249.283, 290.708
249.765, 315.618
250.247, 348.118
250.729, 400.289
251.211, 426.717
251.693, 418.127
252.176, 388.672
252.658, 369.299
253.140, 364.128
253.622, 362.946
254.104, 359.704
254.586, 347.244
255.068, 355.390
255.550, 394.051
256.032, 448.763
256.514, 485.552
256.997, 497.469
257.479, 504.380
257.961, 512.889
258.443, 519.804
258.925, 537.912
259.407, 569.870
259.889, 611.035
260.371, 653.938
260.854, 703.943
261.336, 744.126
261.818, 762.764
262.300, 747.719
262.782, 752.327
263.264, 781.130
263.746, 826.345
264.228, 872.253
264.711, 920.750
265.193, 965.883
265.675, 1006.297
266.157, 1042.598
266.639, 1069.426
267.121, 1083.537
267.603, 1090.743
268.085, 1101.527
268.567, 1115.089
269.050, 1134.956
269.532, 1166.165
270.014, 1212.938
270.496, 1247.140
270.978, 1265.582
271.460, 1274.867
271.942, 1287.470
272.424, 1304.830
272.906, 1320.776
273.389, 1332.359
273.871, 1339.092
274.353, 1345.803
274.835, 1352.062
275.317, 1358.977
275.799, 1366.307
276.281, 1370.012
276.763, 1383.455
277.246, 1419.081
277.728, 1478.359
278.210, 1510.978
278.692, 1509.221
279.174, 1493.477
279.656, 1497.256
280.138, 1522.445
280.620, 1549.657
281.103, 1570.827
281.585, 1586.115
282.067, 1601.955
282.549, 1618.235
283.031, 1634.718
283.513, 1650.678
283.995, 1666.728
284.477, 1686.677
284.959, 1716.612
285.441, 1753.971
285.924, 1779.286
286.406, 1791.798
286.888, 1795.556
287.370, 1790.719
287.852, 1778.306
288.334, 1772.959
288.816, 1778.713
289.298, 1755.273
289.781, 1824.655
290.263, 1871.548
290.745, 1897.161
291.227, 1837.658
291.709, 1888.138
292.191, 1894.585
292.673, 1899.243
293.155, 1965.285
293.638, 1918.312
294.120, 1983.436
294.602, 2003.849
295.084, 2013.920
295.566, 2033.313
296.048, 2059.889
296.530, 2082.743
297.012, 2102.992
297.494, 2124.437
297.977, 2147.384
298.459, 2161.957
298.941, 2136.662
299.423, 2095.561
299.905, 2101.722
300.387, 2056.947
300.869, 2144.036
301.351, 2199.139
301.833, 2223.974
302.316, 2127.837
302.798, 2185.827
303.280, 2184.840
303.762, 2175.888
304.244, 2139.766
304.726, 2099.846
305.208, 2086.642
305.690, 2095.137
306.173, 2097.783
306.655, 2074.685
307.137, 2035.009
307.619, 1991.306
308.101, 1946.569
308.583, 1898.327
309.065, 1846.633
309.547, 1790.721
310.030, 1729.204
310.512, 1654.277
310.994, 1576.653
311.476, 1508.101
311.958, 1450.729
312.440, 1402.316
312.922, 1366.608
313.404, 1339.082
313.886, 1307.781
314.369, 1264.213
314.851, 1216.861
315.333, 1172.083
315.815, 1132.555
316.297, 1092.469
316.779, 1050.718
317.261, 1006.933
317.743, 959.612
318.225, 896.913
318.708, 840.329
319.190, 799.129
319.672, 775.233
320.154, 766.310
320.636, 722.780
321.118, 760.674
321.600, 778.106
322.082, 776.148
322.565, 700.108
323.047, 722.199
323.529, 706.838
324.011, 689.670
324.493, 725.214
324.975, 661.439
325.457, 696.506
325.939, 693.065
326.422, 707.775
326.904, 683.429
327.386, 670.856
327.868, 696.874
328.350, 701.216
328.832, 672.210
329.314, 688.628
329.796, 626.241
330.278, 633.512
330.760, 672.943
331.243, 646.429
331.725, 661.330
332.207, 659.134
332.689, 586.195
333.171, 641.387
333.653, 640.740
334.135, 582.859
334.617, 631.738
335.100, 582.400
335.582, 583.286
336.064, 587.732
336.546, 597.900
337.028, 610.256
337.510, 626.510
337.992, 631.284
338.474, 622.062
338.957, 605.713
339.439, 594.335
339.921, 590.898
340.403, 592.007
340.885, 599.185
341.367, 615.158
341.849, 626.575
342.331, 632.547
342.813, 635.731
343.296, 641.359
343.778, 649.853
344.260, 654.664
344.742, 651.489
345.224, 641.926
345.706, 636.668
346.188, 637.048
346.670, 635.540
347.152, 618.319
347.635, 588.581
348.117, 568.556
348.599, 570.405
349.081, 583.834
349.563, 587.327
350.045, 580.916
350.527, 569.770
351.009, 554.479
351.491, 537.857
351.974, 528.184
352.456, 532.392
352.938, 537.846
353.420, 527.241
353.902, 502.995
354.384, 477.577
354.866, 457.971
355.349, 442.831
355.831, 430.958
356.313, 422.393
356.795, 416.521
357.277, 418.764
357.759, 424.229
358.241, 420.345
358.723, 392.891
359.205, 358.927
359.688, 330.835
360.170, 311.554
360.652, 294.656
361.134, 278.731
361.616, 263.015
362.098, 246.365
362.580, 222.778
363.062, 202.838
363.544, 194.159
364.027, 199.306
364.509, 197.246
364.991, 176.195
365.473, 148.350
365.955, 125.792
366.437, 106.108
366.919, 96.024
367.401, 103.657
367.884, 128.517
368.366, 140.367
368.848, 130.530
369.330, 112.910
369.812, 94.743
370.294, 67.542
370.776, 52.933
371.258, 60.107
371.741, 81.292
372.223, 86.941
372.705, 67.628
373.187, 46.520
373.669, 34.683
374.151, 36.663
374.633, 33.131
375.115, 21.310
375.597, 5.935
376.079, 3.057
376.562, 4.337
377.044, 5.765
377.526, 11.720
378.008, 22.105
378.490, 22.918
378.972, 10.864
379.454, 1.029
379.936, 7.249
380.419, 34.598
380.901, 52.704
381.383, 48.592
381.865, 31.182
382.347, 27.011
382.829, 36.223
383.311, 47.054
383.793, 49.810
384.276, 46.354
384.758, 42.283
385.240, 37.394
385.722, 34.701
386.204, 42.050
386.686, 56.826
387.168, 67.104
387.650, 65.722
388.132, 98.554
388.615, 49.549
389.097, 20.496
389.579, 10.310
390.061, 75.353
390.543, 43.391
391.025, 50.396
391.507, 59.065
391.989, 13.638
392.471, 68.069
392.954, 23.625
393.436, 18.729
393.918, 4.191
394.400, 12.074
394.882, 16.292
395.364, 18.599
395.846, 31.774
396.328, 10.845
396.810, 34.682
397.293, 21.559
397.775, 7.609
398.257, 36.604
398.739, 3.988
399.221, 13.958
399.703, 29.947
400.185, 58.682
400.668, 92.054
401.150, 112.031
401.632, 108.110
402.114, 105.359
402.596, 113.767
403.078, 137.402
403.560, 148.557
404.042, 138.284
404.524, 126.498
405.007, 132.328
405.489, 105.645
405.971, 166.940
406.453, 206.848
406.935, 226.519
407.417, 165.405
407.899, 208.551
408.381, 209.880
408.863, 209.471
409.346, 267.221
409.828, 256.519
410.310, 286.777
410.792, 331.244
411.274, 370.492
411.756, 403.517
412.238, 423.797
412.720, 411.096
413.203, 387.050
413.685, 394.932
414.167, 440.373
414.649, 497.640
415.131, 548.234
415.613, 593.713
416.095, 635.786
416.577, 671.102
417.060, 707.018
417.542, 750.724
418.024, 801.234
418.506, 852.419
418.988, 905.378
419.470, 954.994
419.952, 994.624
420.434, 1012.455
420.916, 1036.306
421.398, 1077.497
421.881, 1131.565
422.363, 1188.079
422.845, 1246.217
423.327, 1304.914
423.809, 1364.288
424.291, 1425.408
424.773, 1482.430
425.255, 1533.611
425.738, 1581.192
426.220, 1627.614
426.702, 1666.977
427.184, 1713.860
427.666, 1773.836
428.148, 1845.316
428.630, 1914.177
429.112, 1980.739
429.595, 2044.000
430.077, 2101.473
430.559, 2151.892
431.041, 2202.711
431.523, 2255.613
432.005, 2308.811
432.487, 2363.182
432.969, 2419.273
433.451, 2464.152
433.934, 2487.978
434.416, 2494.521
434.898, 2498.188
435.380, 2498.883
435.862, 2496.973
436.344, 2489.128
436.826, 2480.212
437.308, 2483.013
437.790, 2514.459
438.273, 2545.119
438.755, 2533.380
439.237, 2486.976
439.719, 2446.954
440.201, 2453.920
440.683, 2469.891
441.165, 2452.255
441.647, 2375.811
442.129, 2310.330
442.612, 2306.684
443.094, 2337.254
443.576, 2353.627
444.058, 2332.475
444.540, 2298.800
445.022, 2260.128
445.504, 2216.923
445.987, 2173.998
446.469, 2134.702
446.951, 2101.371
447.433, 2076.393
447.915, 2077.550
448.397, 2057.048
448.879, 1995.141
449.361, 1904.648
449.843, 1843.616
450.326, 1817.441
450.808, 1799.074
451.290, 1769.345
451.772, 1725.076
452.254, 1693.306
452.736, 1680.205
453.218, 1672.213
453.700, 1642.484
454.182, 1589.710
454.665, 1542.461
455.147, 1506.996
455.629, 1483.641
456.111, 1471.121
456.593, 1467.075
457.075, 1455.274
457.557, 1411.871
458.039, 1351.185
458.522, 1303.157
459.004, 1268.032
459.486, 1258.691
459.968, 1324.022
460.450, 1427.102
460.932, 1478.790
461.414, 1392.087
461.896, 1269.450
462.379, 1186.710
462.861, 1148.178
463.343, 1112.927
463.825, 1053.562
464.307, 993.735
464.789, 954.450
465.271, 957.114
465.753, 961.393
466.235, 960.415
466.717, 955.070
467.200, 948.316
467.682, 939.384
468.164, 930.103
468.646, 920.450
469.128, 908.947
469.610, 902.501
470.092, 904.010
470.574, 907.500
471.057, 906.223
471.539, 899.669
472.021, 889.301
472.503, 873.436
472.985, 854.274
473.467, 841.716
473.949, 836.596
474.431, 830.663
474.914, 816.471
475.396, 796.480
475.878, 781.692
476.360, 773.519
476.842, 769.793
477.324, 769.905
477.806, 772.996
478.288, 776.460
478.770, 784.527
479.253, 789.610
479.735, 778.002
480.217, 752.334
480.699, 734.718
481.181, 743.244
481.663, 763.529
482.145, 778.088
482.627, 759.081
483.109, 737.737
483.592, 796.430
484.074, 832.295
484.556, 847.926
485.038, 791.462
485.520, 831.922
486.002, 832.896
486.484, 852.530
486.966, 861.225
487.448, 882.731
487.931, 910.289
488.413, 926.116
488.895, 934.225
489.377, 930.845
489.859, 910.261
490.341, 886.004
490.823, 889.301
491.306, 923.101
491.788, 946.997
492.270, 940.708
492.752, 913.397
493.234, 901.450
493.716, 904.646
494.198, 914.977
494.680, 934.175
495.162, 956.715
495.645, 965.760
496.127, 949.845
496.609, 931.573
497.091, 921.817
497.573, 922.215
498.055, 930.122
498.537, 952.072
499.019, 974.016
499.501, 991.429
499.984, 1003.780
500.466, 1011.575
500.948, 1009.437
501.430, 1005.700
501.912, 1007.511
502.394, 1022.804
502.876, 1035.527
503.358, 1013.158
503.841, 985.667
504.323, 959.644
504.805, 998.401
505.287, 1021.407
505.769, 1029.529
506.251, 978.175
506.733, 1003.596
507.215, 998.239
507.698, 991.600
508.180, 1027.800
508.662, 985.039
509.144, 1016.324
509.626, 1045.214
510.108, 1088.872
510.590, 1098.736
511.072, 1077.946
511.554, 1050.359
512.036, 1024.255
512.519, 1001.874
513.001, 990.266
513.483, 990.411
513.965, 985.563
514.447, 953.637
514.929, 913.797
515.411, 888.813
515.893, 907.480
516.375, 914.663
516.858, 880.157
517.340, 816.828
517.822, 760.738
518.304, 718.135
518.786, 685.239
519.268, 664.436
519.750, 658.931
520.232, 645.143
520.715, 618.304
521.197, 587.858
521.679, 562.602
522.161, 545.261
522.643, 523.522
523.125, 494.643
523.607, 461.932
524.089, 435.621
524.571, 416.635
525.054, 391.772
525.536, 344.955
526.018, 286.662
526.500, 259.320
526.982, 263.690
527.464, 270.925
527.946, 248.804
528.429, 213.966
528.911, 195.400
529.393, 205.840
529.875, 222.650
530.357, 239.484
530.839, 250.023
531.321, 241.189
531.803, 193.142
532.286, 137.969
532.768, 85.941
533.250, 36.998
533.732, 1.250
534.214, 12.749
534.696, 18.371
535.178, 23.455
535.660, 27.102
536.142, 31.842
536.625, 38.496
537.107, 45.581
537.589, 49.839
538.071, 50.004
538.553, 52.983
539.035, 62.340
539.517, 75.992
539.999, 91.783
540.481, 110.671
540.964, 151.810
541.446, 89.689
541.928, 52.760
542.410, 39.652
542.892, 121.488
543.374, 80.918
543.856, 89.531
544.338, 100.248
544.820, 42.702
545.303, 111.180
545.785, 54.879
546.267, 57.624
546.749, 40.339
547.231, 29.986
547.713, 50.323
548.195, 66.521
548.677, 57.569
549.159, 6.973
549.642, 18.042
550.124, 3.081
550.606, 24.729
551.088, 37.820
551.570, 29.919
552.052, 28.652
552.534, 41.863
553.016, 61.204
553.499, 63.980
553.981, 99.331
554.463, 26.718
554.945, 19.640
555.427, 41.173
555.909, 36.451
556.391, 13.913
556.873, 12.958
557.356, 9.889
557.838, 78.229
558.320, 14.950
558.802, 82.135
559.284, 97.226
559.766, 136.143
560.248, 123.430
560.730, 126.648
561.213, 181.501
561.695, 207.746
562.177, 189.052
562.659, 229.426
563.141, 164.240
563.623, 191.667
564.105, 259.056
564.587, 242.914
565.069, 284.194
565.552, 303.595
566.034, 223.597
566.516, 274.917
566.998, 289.903
567.480, 289.024
567.962, 297.629
568.444, 326.174
568.926, 362.544
569.408, 383.128
569.891, 390.453
570.373, 397.066
570.855, 410.562
571.337, 426.894
571.819, 439.836
572.301, 448.789
572.783, 465.574
573.265, 490.686
573.747, 477.513
574.230, 550.509
574.712, 602.585
575.194, 634.874
575.676, 588.098
576.158, 643.418
576.640, 657.827
577.122, 670.560
577.604, 740.261
578.086, 704.992
578.569, 768.222
579.051, 793.957
579.533, 838.566
580.015, 882.632
580.497, 911.403
580.979, 928.000
581.461, 939.960
581.943, 942.862
582.426, 975.194
582.908, 889.780
583.390, 1100.028
583.872, 1238.524
584.354, 1309.129
584.836, 1108.412
585.318, 1258.059
585.800, 1267.313
586.282, 1270.818
586.765, 1469.810
587.247, 1438.942
587.729, 1466.699
588.211, 1535.423
588.693, 1599.493
589.175, 1651.011
589.657, 1703.192
590.140, 1761.611
590.622, 1823.921
591.104, 1903.535
591.586, 2012.590
592.068, 2118.680
592.550, 2163.045
593.032, 2147.245
593.514, 2156.006
593.996, 2218.223
594.479, 2307.863
594.961, 2387.290
595.443, 2456.251
595.925, 2512.920
596.407, 2536.437
596.889, 2559.081
597.371, 2605.603
597.853, 2677.603
598.335, 2783.411
598.818, 2986.998
599.300, 3192.413
599.782, 3321.667
600.264, 3319.207
600.746, 3305.287
601.228, 3280.937
601.710, 3262.663
602.192, 3272.715
602.674, 3307.374
603.157, 3394.225
603.639, 3575.654
604.121, 3804.980
604.603, 3926.124
605.085, 3932.164
605.567, 3917.711
606.049, 3926.830
606.531, 3958.228
607.013, 4010.525
607.496, 4081.732
607.978, 4157.686
608.460, 4229.201
608.942, 4298.135
609.424, 4367.548
609.906, 4438.704
610.388, 4504.931
610.870, 4560.425
611.353, 4610.453
611.835, 4657.562
612.317, 4702.549
612.799, 4757.460
613.281, 4825.083
613.763, 4901.310
614.245, 4979.822
614.727, 5066.783
615.209, 5134.741
615.692, 5165.413
616.174, 5162.320
616.656, 5167.497
617.138, 5180.909
617.620, 5204.729
618.102, 5250.326
618.584, 5307.417
619.067, 5347.884
619.549, 5364.756
620.031, 5376.775
620.513, 5404.157
620.995, 5436.002
621.477, 5456.307
621.959, 5447.856
622.441, 5438.858
622.923, 5438.387
623.406, 5444.619
623.888, 5451.839
624.370, 5462.653
624.852, 5470.287
625.334, 5470.708
625.816, 5464.109
626.298, 5469.381
626.780, 5494.962
627.263, 5508.387
627.745, 5479.446
628.227, 5412.839
628.709, 5351.874
629.191, 5299.000
629.673, 5257.626
630.155, 5239.355
630.637, 5234.736
631.119, 5225.222
631.602, 5207.919
632.084, 5180.268
632.566, 5131.396
633.048, 5072.037
633.530, 5023.208
634.012, 5001.688
634.494, 4981.542
634.976, 4950.766
635.458, 4911.172
635.941, 4885.444
636.423, 4881.370
636.905, 4879.349
637.387, 4871.026
637.869, 4856.231
638.351, 4833.413
638.833, 4799.988
639.315, 4769.783
639.797, 4763.153
640.280, 4772.204
640.762, 4765.950
641.244, 4735.429
641.726, 4701.408
642.208, 4685.904
642.690, 4681.017
643.172, 4672.886
643.654, 4666.198
644.137, 4645.262
644.619, 4594.141
645.101, 4522.408
645.583, 4461.511
646.065, 4444.885
646.547, 4408.913
647.029, 4331.968
647.511, 4213.301
647.994, 4097.193
648.476, 3982.013
648.958, 3877.186
649.440, 3801.729
649.922, 3749.229
650.404, 3664.572
650.886, 3542.914
651.368, 3405.598
651.851, 3272.703
652.333, 3142.826
652.815, 3006.515
653.297, 2854.123
653.779, 2713.137
654.261, 2610.019
654.743, 2527.857
655.225, 2440.163
655.707, 2317.880
656.190, 2215.008
656.672, 2155.165
657.154, 2125.486
657.636, 2071.555
658.118, 1982.980
658.600, 1892.566
659.082, 1813.172
659.564, 1742.951
660.046, 1673.361
660.529, 1603.717
661.011, 1537.711
661.493, 1480.958
661.975, 1429.921
662.457, 1376.581
662.939, 1320.065
663.421, 1260.591
663.903, 1187.933
664.385, 1117.508
664.868, 1067.833
665.350, 1060.345
665.832, 1048.653
666.314, 1014.617
666.796, 971.585
667.278, 943.794
667.760, 947.266
668.242, 937.217
668.724, 900.339
669.207, 844.623
669.689, 795.272
670.171, 752.177
670.653, 719.762
671.135, 708.042
671.617, 705.858
672.099, 682.057
672.581, 638.539
673.064, 599.032
673.546, 585.957
674.028, 582.544
674.510, 573.238
674.992, 554.647
675.474, 537.459
675.956, 532.580
676.438, 525.915
676.920, 505.730
677.403, 463.395
677.885, 424.771
678.367, 391.937
678.849, 362.362
679.331, 328.417
679.813, 288.440
680.295, 265.641
680.778, 270.302
681.260, 287.042
681.742, 287.938
682.224, 278.228
682.706, 275.118
683.188, 299.995
683.670, 322.358
684.152, 315.578
684.634, 284.496
685.117, 254.394
685.599, 224.282
686.081, 204.190
686.563, 204.706
687.045, 228.765
687.527, 236.175
688.009, 222.609
688.491, 200.051
688.973, 171.965
689.456, 137.969
689.938, 120.566
690.420, 122.317
690.902, 132.430
691.384, 145.880
691.866, 158.012
692.348, 157.162
692.830, 136.736
693.312, 114.339
693.795, 104.034
694.277, 99.646
694.759, 93.260
695.241, 77.646
695.723, 64.722
696.205, 52.034
696.687, 43.095
697.169, 48.492
697.652, 74.494
698.134, 97.976
698.616, 115.894
699.098, 124.522
699.580, 99.259
700.062, 41.431
700.544, 6.859
701.026, 16.177
701.508, 1.145
701.991, 25.882
702.473, 62.456
702.955, 83.480
703.437, 58.179
703.919, 24.427
704.401, 8.306
704.883, 15.525
705.365, 29.562
705.847, 59.470
706.330, 86.579
706.812, 95.167
707.294, 80.562
707.776, 65.146
708.258, 50.031
708.740, 35.273
709.222, 17.442
709.705, 0.525
710.187, 3.910
710.669, 16.720
711.151, 41.536
711.633, 44.531
712.115, 33.016
712.597, 16.611
713.079, 12.399
713.561, 33.236
714.044, 28.895
714.526, 6.161
715.008, 4.849
715.490, 2.733
715.972, 2.624
716.454, 5.375
716.936, 5.745
717.418, 4.979
717.901, 3.122
718.383, 4.630
718.865, 21.287
719.347, 40.106
719.829, 29.272
720.311, 9.777
720.793, 39.329
721.275, 22.283
721.757, 5.319
722.240, 14.891
722.722, 2.876
723.204, 15.350
723.686, 18.783
724.168, 14.550
724.650, 0.061
725.132, 32.677
725.614, 42.846
726.096, 22.777
726.579, 3.360
727.061, 3.359
727.543, 17.018
728.025, 34.176
728.507, 44.168
728.989, 48.022
729.471, 37.880
729.953, 21.968
730.435, 13.609
730.918, 28.681
731.400, 40.608
731.882, 39.839
732.364, 30.336
732.846, 22.791
733.328, 16.230
733.810, 12.761
734.292, 12.692
734.775, 16.160
735.257, 30.432
735.739, 54.934
736.221, 68.633
736.703, 52.237
737.185, 22.872
737.667, 1.865
738.149, 10.031
738.631, 8.683
739.114, 30.086
