##NAMES=Caledonite
##RRUFFID=R060506
##IDEAL CHEMISTRY=Cu_2_Pb_5_(SO_4_)_3_(CO_3_)(OH)_6_
##LOCALITY=Rowley mine, Maricopa County, Arizona, USA
##OWNER=RRUFF
##SOURCE=Jim Ricker
##DESCRIPTION=Blue prismatic crystals
##STATUS=The identification of this mineral has been confirmed by single-crystal X-ray diffraction.
##URL=rruff.info/R060506
83.436, 0.000
83.918, 215.381
84.400, 198.332
84.882, 186.967
85.364, 178.671
85.846, 168.327
86.329, 157.941
86.811, 149.155
87.293, 139.346
87.775, 130.084
88.257, 127.686
88.739, 141.339
89.221, 154.725
89.703, 158.755
90.185, 152.215
90.668, 133.041
91.150, 108.689
91.632, 87.585
92.114, 68.052
92.596, 46.726
93.078, 23.641
93.560, 3.023
94.042, 11.075
94.525, 19.210
95.007, 24.386
95.489, 27.380
95.971, 28.316
96.453, 28.108
96.935, 28.084
97.417, 23.586
97.899, 8.000
98.381, 18.993
98.864, 58.102
99.346, 107.435
99.828, 166.201
100.310, 248.722
100.792, 355.746
101.274, 487.612
101.756, 652.056
102.238, 852.555
102.720, 1081.584
103.203, 1340.416
103.685, 1629.624
104.167, 1942.385
104.649, 2276.351
105.131, 2636.997
105.613, 3002.618
106.095, 3363.393
106.577, 3736.614
107.060, 4152.312
107.542, 4613.419
108.024, 5110.962
108.506, 5646.472
108.988, 6203.107
109.470, 6815.090
109.952, 7479.477
110.434, 8195.708
110.916, 8962.678
111.399, 9856.039
111.881, 10748.578
112.363, 11580.043
112.845, 12411.419
113.327, 13101.972
113.809, 13639.185
114.291, 14019.688
114.773, 14237.456
115.256, 14226.878
115.738, 14072.678
116.220, 13864.392
116.702, 13593.577
117.184, 13302.388
117.666, 13008.892
118.148, 12710.128
118.630, 12413.568
119.113, 12133.151
119.595, 11858.988
120.077, 11572.271
120.559, 11278.199
121.041, 10960.359
121.523, 10603.779
122.005, 10204.417
122.487, 9764.541
122.969, 9280.608
123.451, 8756.220
123.934, 8228.865
124.416, 7700.739
124.898, 7189.938
125.380, 6727.963
125.862, 6340.138
126.344, 6003.468
126.826, 5683.364
127.308, 5384.653
127.791, 5110.156
128.273, 4869.067
128.755, 4658.538
129.237, 4466.524
129.719, 4285.121
130.201, 4117.185
130.683, 3970.661
131.165, 3844.154
131.648, 3742.579
132.130, 3672.332
132.612, 3633.509
133.094, 3615.536
133.576, 3613.266
134.058, 3626.338
134.540, 3652.119
135.022, 3692.379
135.504, 3744.876
135.986, 3797.479
136.469, 3849.870
136.951, 3905.681
137.433, 3970.844
137.915, 4046.605
138.397, 4120.256
138.879, 4187.991
139.361, 4249.312
139.844, 4312.578
140.326, 4379.209
140.808, 4446.078
141.290, 4507.103
141.772, 4568.716
142.254, 4618.465
142.736, 4653.614
143.218, 4681.488
143.700, 4675.439
144.182, 4629.381
144.665, 4550.273
145.147, 4459.738
145.629, 4367.037
146.111, 4252.354
146.593, 4104.137
147.075, 3893.218
147.557, 3689.627
148.039, 3499.794
148.522, 3323.260
149.004, 3148.068
149.486, 2964.672
149.968, 2787.345
150.450, 2624.770
150.932, 2485.454
151.414, 2353.535
151.896, 2226.169
152.378, 2102.575
152.861, 1991.371
153.343, 1893.556
153.825, 1807.995
154.307, 1732.566
154.789, 1670.594
155.271, 1615.913
155.753, 1567.212
156.235, 1524.374
156.717, 1486.865
157.200, 1455.125
157.682, 1428.510
158.164, 1406.233
158.646, 1393.805
159.128, 1381.584
159.610, 1363.835
160.092, 1333.104
160.574, 1304.613
161.057, 1285.695
161.539, 1274.011
162.021, 1258.996
162.503, 1229.778
162.985, 1198.202
163.467, 1174.136
163.949, 1174.597
164.431, 1171.785
164.913, 1148.642
165.396, 1105.628
165.878, 1064.447
166.360, 1042.236
166.842, 1027.502
167.324, 1005.463
167.806, 962.445
168.288, 915.218
168.770, 875.320
169.253, 844.404
169.735, 817.397
170.217, 791.884
170.699, 767.917
171.181, 745.537
171.663, 722.160
172.145, 701.542
172.627, 688.136
173.109, 683.571
173.592, 683.130
174.074, 684.870
174.556, 687.891
175.038, 688.697
175.520, 683.050
176.002, 674.183
176.484, 667.555
176.966, 665.446
177.449, 664.353
177.931, 655.853
178.413, 641.404
178.895, 634.599
179.377, 651.746
179.859, 685.089
180.341, 715.989
180.823, 739.361
181.305, 756.784
181.788, 769.739
182.270, 777.983
182.752, 784.164
183.234, 794.754
183.716, 806.818
184.198, 807.829
184.680, 790.624
185.162, 758.928
185.645, 720.405
186.127, 674.504
186.609, 625.764
187.091, 578.639
187.573, 533.056
188.055, 492.187
188.537, 463.841
189.019, 443.419
189.501, 404.390
189.984, 338.847
190.466, 269.768
190.948, 240.536
191.430, 251.406
191.912, 262.406
192.394, 245.648
192.876, 204.249
193.358, 173.261
193.840, 158.572
194.323, 153.090
194.805, 139.745
195.287, 117.479
195.769, 96.044
196.251, 84.885
196.733, 84.208
197.215, 76.831
197.697, 56.844
198.180, 29.562
198.662, 14.846
199.144, 14.414
199.626, 19.758
200.108, 24.702
200.590, 29.459
201.072, 31.629
201.554, 28.754
202.036, 22.293
202.519, 25.875
203.001, 43.893
203.483, 62.385
203.965, 62.642
204.447, 38.964
204.929, 23.037
205.411, 27.068
205.893, 50.855
206.376, 62.578
206.858, 58.452
207.340, 48.102
207.822, 45.045
208.304, 51.529
208.786, 59.198
209.268, 63.173
209.750, 61.181
210.232, 73.175
210.715, 105.451
211.197, 145.018
211.679, 166.674
212.161, 163.188
212.643, 161.671
213.125, 175.662
213.607, 211.359
214.089, 236.310
214.572, 246.415
215.054, 248.290
215.536, 257.262
216.018, 274.123
216.500, 294.408
216.982, 317.049
217.464, 344.986
217.946, 368.779
218.428, 387.375
218.911, 401.344
219.393, 410.941
219.875, 410.672
220.357, 414.865
220.839, 433.740
221.321, 474.510
221.803, 510.816
222.285, 538.404
222.768, 559.454
223.250, 585.558
223.732, 621.269
224.214, 656.269
224.696, 685.035
225.178, 710.607
225.660, 723.882
226.142, 720.377
226.624, 701.070
227.107, 682.917
227.589, 661.393
228.071, 646.363
228.553, 648.402
229.035, 681.596
229.517, 704.854
229.999, 708.720
230.481, 692.457
230.964, 681.970
231.446, 681.666
231.928, 682.861
232.410, 677.092
232.892, 662.278
233.374, 643.719
233.856, 621.973
234.338, 597.478
234.820, 573.216
235.303, 545.744
235.785, 520.149
236.267, 503.962
236.749, 505.424
237.231, 503.146
237.713, 489.771
238.195, 461.754
238.677, 438.893
239.159, 455.322
239.642, 462.371
240.124, 460.498
240.606, 422.256
241.088, 430.700
241.570, 420.470
242.052, 409.498
242.534, 424.582
243.016, 391.719
243.499, 406.439
243.981, 402.198
244.463, 406.668
244.945, 392.345
245.427, 383.856
245.909, 394.209
246.391, 394.164
246.873, 377.761
247.355, 382.915
247.837, 358.198
248.320, 361.709
248.802, 365.691
249.284, 366.177
249.766, 363.420
250.248, 356.412
250.730, 343.998
251.212, 328.012
251.695, 312.286
252.177, 297.019
252.659, 281.864
253.141, 267.055
253.623, 253.925
254.105, 238.218
254.587, 220.398
255.069, 199.854
255.551, 173.287
256.034, 134.304
256.516, 101.039
256.998, 83.871
257.480, 93.106
257.962, 89.757
258.444, 68.504
258.926, 36.538
259.408, 11.568
259.890, 3.648
260.373, 17.206
260.855, 34.385
261.337, 59.215
261.819, 74.895
262.301, 79.053
262.783, 74.776
263.265, 69.646
263.747, 63.072
264.229, 56.909
264.712, 51.427
265.194, 45.588
265.676, 44.955
266.158, 52.165
266.640, 63.558
267.122, 68.404
267.604, 65.299
268.086, 59.009
268.569, 51.034
269.051, 40.055
269.533, 33.193
270.015, 32.413
270.497, 35.039
270.979, 33.113
271.461, 24.959
271.943, 16.884
272.426, 14.275
272.908, 19.183
273.390, 15.936
273.872, 1.083
274.354, 21.007
274.836, 39.150
275.318, 53.285
275.800, 64.186
276.282, 71.500
276.764, 74.801
277.247, 78.673
277.729, 83.910
278.211, 89.522
278.693, 92.682
279.175, 92.856
279.657, 93.073
280.139, 98.305
280.621, 108.967
281.104, 106.607
281.586, 85.592
282.068, 54.917
282.550, 33.474
283.032, 21.538
283.514, 16.347
283.996, 18.967
284.478, 28.881
284.961, 36.152
285.443, 40.437
285.925, 40.714
286.407, 31.989
286.889, 13.865
287.371, 1.826
287.853, 6.028
288.335, 0.244
288.817, 4.522
289.299, 6.797
289.782, 8.146
290.264, 12.871
290.746, 20.712
291.228, 25.454
291.710, 18.901
292.192, 4.841
292.674, 0.295
293.156, 8.885
293.639, 23.198
294.121, 29.594
294.603, 29.372
295.085, 34.387
295.567, 60.461
296.049, 97.301
296.531, 113.053
297.013, 96.781
297.496, 91.728
297.978, 159.192
298.460, 209.037
298.942, 242.213
299.424, 208.807
299.906, 261.339
300.388, 279.414
300.870, 296.059
301.352, 360.647
301.835, 336.859
302.317, 400.658
302.799, 429.472
303.281, 450.165
303.763, 500.523
304.245, 538.030
304.727, 558.168
305.209, 577.194
305.691, 610.896
306.174, 654.461
306.656, 697.295
307.138, 730.764
307.620, 763.192
308.102, 805.547
308.584, 860.964
309.066, 913.269
309.548, 949.731
310.030, 976.171
310.513, 1003.666
310.995, 1034.503
311.477, 1069.243
311.959, 1111.655
312.441, 1163.274
312.923, 1210.281
313.405, 1241.135
313.888, 1262.348
314.370, 1283.329
314.852, 1313.582
315.334, 1340.883
315.816, 1357.332
316.298, 1362.016
316.780, 1360.844
317.262, 1353.959
317.744, 1344.230
318.227, 1334.868
318.709, 1328.637
319.191, 1319.711
319.673, 1308.746
320.155, 1296.586
320.637, 1275.320
321.119, 1231.984
321.601, 1183.378
322.083, 1145.360
322.566, 1135.761
323.048, 1122.099
323.530, 1094.311
324.012, 1051.510
324.494, 1009.121
324.976, 961.695
325.458, 920.210
325.940, 892.514
326.422, 899.831
326.905, 898.337
327.387, 875.428
327.869, 832.769
328.351, 806.549
328.833, 811.628
329.315, 822.986
329.797, 825.766
330.279, 812.909
330.762, 800.156
331.244, 785.514
331.726, 771.848
332.208, 772.152
332.690, 791.810
333.172, 817.513
333.654, 842.943
334.136, 868.937
334.618, 893.148
335.101, 915.177
335.583, 935.489
336.065, 953.592
336.547, 964.750
337.029, 982.871
337.511, 1017.918
337.993, 1075.746
338.475, 1124.987
338.957, 1164.399
339.440, 1195.079
339.922, 1215.703
340.404, 1223.124
340.886, 1232.293
341.368, 1254.975
341.850, 1293.024
342.332, 1312.703
342.815, 1312.222
343.297, 1297.575
343.779, 1274.164
344.261, 1241.620
344.743, 1209.884
345.225, 1189.076
345.707, 1175.189
346.189, 1138.660
346.671, 1076.728
347.154, 1008.451
347.636, 956.035
348.118, 917.255
348.600, 876.920
349.082, 831.183
349.564, 778.852
350.046, 711.445
350.528, 628.912
351.010, 555.627
351.493, 523.918
351.975, 517.176
352.457, 498.402
352.939, 448.237
353.421, 388.886
353.903, 344.362
354.385, 313.187
354.867, 288.195
355.349, 268.882
355.832, 252.121
356.314, 232.406
356.796, 204.197
357.278, 179.272
357.760, 171.273
358.242, 175.500
358.724, 175.189
359.206, 157.868
359.689, 134.802
360.171, 115.121
360.653, 102.852
361.135, 88.853
361.617, 63.268
362.099, 33.232
362.581, 12.983
363.063, 16.424
363.546, 23.498
364.028, 23.949
364.510, 13.868
364.992, 6.293
365.474, 9.268
365.956, 15.138
366.438, 12.932
366.920, 12.162
367.402, 32.478
367.884, 38.605
368.367, 26.825
368.849, 19.572
369.331, 22.341
369.813, 26.954
370.295, 25.393
370.777, 7.259
371.259, 1.880
371.741, 7.197
372.224, 33.310
372.706, 42.957
373.188, 25.705
373.670, 5.225
374.152, 0.631
374.634, 19.739
375.116, 32.218
375.598, 33.338
376.081, 25.987
376.563, 20.291
377.045, 16.663
377.527, 13.332
378.009, 8.129
378.491, 0.871
378.973, 2.269
379.455, 0.561
379.937, 4.728
380.419, 13.158
380.902, 24.687
381.384, 33.304
381.866, 34.607
382.348, 29.993
382.830, 26.889
383.312, 26.152
383.794, 23.014
384.276, 7.576
384.759, 16.292
385.241, 33.602
385.723, 30.902
386.205, 21.030
386.687, 25.625
387.169, 44.314
387.651, 63.192
388.133, 68.511
388.616, 67.309
389.098, 70.385
389.580, 82.604
390.062, 98.393
390.544, 114.644
391.026, 131.285
391.508, 148.329
391.990, 169.127
392.472, 188.614
392.955, 201.529
393.437, 201.912
393.919, 205.266
394.401, 218.197
394.883, 238.528
395.365, 261.425
395.847, 289.583
396.329, 317.036
396.811, 338.745
397.294, 348.792
397.776, 371.507
398.258, 423.244
398.740, 484.696
399.222, 531.581
399.704, 544.343
400.186, 563.664
400.668, 599.017
401.151, 651.419
401.633, 700.425
402.115, 739.575
402.597, 781.863
403.079, 839.824
403.561, 921.379
404.043, 998.352
404.525, 1063.884
405.008, 1122.847
405.490, 1194.650
405.972, 1282.021
406.454, 1375.746
406.936, 1469.630
407.418, 1563.199
407.900, 1668.524
408.382, 1785.329
408.864, 1913.860
409.346, 2056.163
409.829, 2213.335
410.311, 2374.124
410.793, 2536.973
411.275, 2701.640
411.757, 2865.602
412.239, 3026.575
412.721, 3194.791
413.203, 3385.176
413.686, 3590.829
414.168, 3794.794
414.650, 3988.049
415.132, 4180.882
415.614, 4391.649
416.096, 4616.337
416.578, 4840.359
417.060, 5057.517
417.543, 5265.462
418.025, 5455.695
418.507, 5610.537
418.989, 5774.951
419.471, 5989.279
419.953, 6231.227
420.435, 6442.375
420.917, 6594.659
421.399, 6720.640
421.882, 6837.112
422.364, 6948.714
422.846, 7040.064
423.328, 7090.359
423.810, 7126.797
424.292, 7182.245
424.774, 7295.763
425.256, 7387.693
425.738, 7455.375
426.221, 7499.021
426.703, 7486.562
427.185, 7409.544
427.667, 7284.398
428.149, 7116.562
428.631, 6886.698
429.113, 6669.331
429.595, 6469.692
430.078, 6287.024
430.560, 6119.336
431.042, 5970.354
431.524, 5830.674
432.006, 5695.143
432.488, 5562.508
432.970, 5439.726
433.452, 5328.632
433.934, 5225.461
434.417, 5135.521
434.899, 5054.135
435.381, 4947.060
435.863, 4781.342
436.345, 4590.607
436.827, 4448.483
437.309, 4352.800
437.791, 4255.885
438.273, 4114.512
438.756, 3946.787
439.238, 3778.944
439.720, 3610.018
440.202, 3456.618
440.684, 3333.708
441.166, 3236.714
441.648, 3152.967
442.130, 3087.563
442.612, 3026.298
443.095, 2955.374
443.577, 2864.609
444.059, 2799.502
444.541, 2792.726
445.023, 2813.418
445.505, 2824.573
445.987, 2803.734
446.470, 2788.878
446.952, 2788.424
447.434, 2802.689
447.916, 2823.607
448.398, 2852.749
448.880, 2886.927
449.362, 2924.950
449.844, 2969.329
450.326, 3010.332
450.809, 3042.312
451.291, 3073.737
451.773, 3125.261
452.255, 3199.831
452.737, 3285.029
453.219, 3379.288
453.701, 3483.250
454.183, 3574.832
454.665, 3654.404
455.148, 3724.539
455.630, 3800.875
456.112, 3876.997
456.594, 3905.317
457.076, 3871.052
457.558, 3783.951
458.040, 3652.807
458.522, 3480.947
459.004, 3285.504
459.487, 3062.855
459.969, 2830.565
460.451, 2611.111
460.933, 2404.167
461.415, 2225.276
461.897, 2096.463
462.379, 2004.871
462.862, 1932.010
463.344, 1866.766
463.826, 1821.373
464.308, 1805.982
464.790, 1821.610
465.272, 1848.728
465.754, 1877.744
466.236, 1917.973
466.718, 1976.462
467.201, 2069.554
467.683, 2161.938
468.165, 2248.846
468.647, 2333.476
469.129, 2427.022
469.611, 2531.447
470.093, 2641.158
470.575, 2757.995
471.057, 2884.680
471.539, 2994.985
472.022, 3091.017
472.504, 3167.168
472.986, 3217.901
473.468, 3243.300
473.950, 3236.083
474.432, 3194.639
474.914, 3119.654
475.397, 3003.029
475.879, 2845.642
476.361, 2680.925
476.843, 2536.284
477.325, 2402.316
477.807, 2251.542
478.289, 2074.415
478.771, 1899.987
479.253, 1756.909
479.736, 1638.741
480.218, 1532.219
480.700, 1436.271
481.182, 1345.789
481.664, 1255.970
482.146, 1167.522
482.628, 1089.715
483.110, 1032.021
483.592, 983.289
484.075, 935.025
484.557, 878.958
485.039, 828.592
485.521, 790.750
486.003, 761.212
486.485, 729.260
486.967, 695.207
487.449, 658.467
487.931, 616.750
488.414, 569.015
488.896, 532.841
489.378, 511.040
489.860, 496.787
490.342, 485.802
490.824, 478.404
491.306, 464.560
491.788, 440.435
492.271, 412.917
492.753, 403.765
493.235, 412.320
493.717, 414.216
494.199, 385.895
494.681, 341.220
495.163, 314.184
495.645, 308.627
496.128, 306.311
496.610, 290.113
497.092, 265.821
497.574, 243.146
498.056, 225.583
498.538, 210.445
499.020, 194.291
499.502, 178.517
499.984, 168.445
500.466, 171.117
500.949, 176.110
501.431, 178.076
501.913, 176.763
502.395, 172.011
502.877, 161.165
503.359, 147.225
503.841, 135.133
504.323, 128.223
504.806, 118.056
505.288, 100.536
505.770, 77.576
506.252, 65.098
506.734, 66.200
507.216, 69.875
507.698, 68.954
508.180, 63.186
508.663, 58.905
509.145, 56.740
509.627, 55.499
510.109, 54.964
510.591, 54.541
511.073, 50.397
511.555, 39.253
512.037, 24.625
512.519, 7.621
513.002, 10.084
513.484, 17.496
513.966, 6.480
514.448, 37.386
514.930, 48.751
515.412, 29.910
515.894, 9.200
516.376, 2.991
516.859, 8.180
517.341, 8.714
517.823, 0.143
518.305, 7.926
518.787, 13.594
519.269, 16.699
519.751, 16.221
520.233, 10.823
520.715, 3.250
521.198, 5.309
521.680, 15.889
522.162, 24.845
522.644, 32.783
523.126, 38.221
523.608, 37.922
524.090, 31.362
524.572, 24.580
525.054, 18.499
525.537, 14.087
526.019, 15.769
526.501, 23.377
526.983, 31.197
527.465, 37.442
527.947, 40.360
528.429, 34.422
528.911, 15.681
529.393, 0.477
529.876, 6.325
530.358, 23.488
530.840, 36.268
531.322, 35.825
531.804, 32.332
532.286, 29.997
532.768, 28.733
533.250, 26.400
533.732, 21.058
534.215, 15.636
534.697, 12.465
535.179, 16.572
535.661, 10.616
536.143, 14.226
536.625, 42.426
537.107, 52.184
537.589, 38.631
538.072, 24.267
538.554, 13.417
539.036, 5.797
539.518, 0.852
540.000, 1.324
540.482, 3.493
540.964, 11.523
541.446, 20.912
541.929, 15.809
542.411, 7.245
542.893, 29.262
543.375, 27.825
543.857, 13.375
544.339, 4.582
544.821, 11.270
545.303, 22.093
545.786, 35.575
546.268, 49.024
546.750, 52.674
547.232, 27.696
547.714, 5.065
548.196, 2.072
548.678, 28.740
549.160, 44.471
549.642, 43.829
550.125, 35.551
550.607, 26.443
551.089, 13.522
551.571, 7.815
552.053, 12.303
552.535, 23.780
553.017, 34.681
553.499, 45.087
553.981, 54.018
554.464, 62.040
554.946, 68.310
555.428, 68.638
555.910, 62.894
556.392, 55.392
556.874, 46.562
557.356, 39.250
557.838, 39.705
558.320, 54.780
558.803, 66.267
559.285, 54.605
559.767, 31.004
560.249, 17.032
560.731, 29.691
561.213, 43.924
561.695, 49.850
562.177, 47.032
562.659, 46.303
563.142, 50.898
563.624, 55.281
564.106, 55.628
564.588, 47.491
565.070, 48.007
565.552, 60.642
566.034, 77.212
566.516, 86.955
566.999, 89.749
567.481, 86.468
567.963, 72.909
568.445, 57.249
568.927, 61.857
569.409, 84.368
569.891, 102.891
570.373, 97.191
570.856, 82.050
571.338, 78.891
571.820, 91.525
572.302, 101.925
572.784, 92.869
573.266, 78.608
573.748, 73.841
574.230, 89.144
574.713, 106.305
575.195, 127.156
575.677, 147.553
576.159, 154.089
576.641, 132.189
577.123, 116.604
577.605, 121.054
578.087, 145.344
578.569, 153.382
579.052, 138.719
579.534, 123.894
580.016, 131.451
580.498, 159.287
580.980, 172.607
581.462, 165.770
581.944, 153.593
582.426, 153.833
582.908, 163.957
583.391, 176.188
583.873, 187.069
584.355, 198.198
584.837, 210.977
585.319, 225.396
585.801, 241.772
586.283, 264.719
586.765, 287.640
587.247, 304.838
587.730, 312.036
588.212, 322.049
588.694, 335.579
589.176, 354.853
589.658, 381.742
590.140, 422.666
590.622, 456.352
591.104, 478.143
591.586, 494.686
592.069, 520.363
592.551, 555.710
593.033, 592.927
593.515, 629.378
593.997, 667.192
594.479, 709.118
594.961, 755.407
595.443, 807.265
595.925, 876.120
596.408, 946.956
596.890, 997.674
597.372, 1021.095
597.854, 1044.479
598.336, 1081.314
598.818, 1127.173
599.300, 1176.248
599.782, 1237.160
600.265, 1293.116
600.747, 1342.559
601.229, 1383.372
601.711, 1411.780
602.193, 1428.462
602.675, 1431.660
603.157, 1419.016
603.639, 1391.131
604.122, 1356.179
604.604, 1310.854
605.086, 1269.287
605.568, 1245.435
606.050, 1235.784
606.532, 1223.831
607.014, 1206.971
607.496, 1185.869
607.979, 1163.389
608.461, 1137.076
608.943, 1101.534
609.425, 1053.927
609.907, 998.165
