##NAMES=Cassiterite
##RRUFFID=R060563
##IDEAL CHEMISTRY=SnO_2_
##LOCALITY=unknown
##OWNER=RRUFF
##SOURCE=Gemological Institute of America
##DESCRIPTION=Dark brown fragment
##STATUS=The identification of this mineral has been confirmed by X-ray diffraction and chemical analysis
##URL=rruff.info/R060563
##MEASURED CHEMISTRY=Sn_1.00_O_2_
119.593, 0.000
120.075, 47.122
120.558, 127.823
121.040, 221.180
121.522, 317.186
122.004, 410.549
122.486, 511.043
122.968, 630.110
123.450, 745.801
123.932, 798.013
124.414, 731.992
124.897, 630.424
125.379, 507.656
125.861, 373.254
126.343, 264.835
126.825, 194.975
127.307, 160.915
127.789, 133.477
128.271, 83.957
128.753, 21.477
129.236, 28.090
129.718, 57.360
130.200, 68.352
130.682, 60.725
131.164, 32.962
131.646, 0.470
132.128, 16.994
132.610, 20.482
133.093, 27.673
133.575, 47.815
134.057, 79.029
134.539, 106.825
135.021, 128.708
135.503, 151.745
135.985, 191.188
136.467, 250.341
136.949, 306.546
137.432, 345.140
137.914, 364.160
138.396, 390.758
138.878, 431.975
139.360, 479.040
139.842, 502.785
140.324, 499.098
140.806, 480.846
141.288, 453.241
141.771, 410.146
142.253, 376.858
142.735, 359.038
143.217, 355.676
143.699, 348.285
144.181, 322.053
144.663, 307.413
145.145, 339.034
145.628, 465.407
146.110, 557.136
146.592, 583.007
147.074, 532.410
147.556, 477.396
148.038, 404.689
148.520, 332.158
149.002, 284.230
149.484, 275.110
149.967, 275.068
150.449, 277.152
150.931, 282.165
151.413, 287.836
151.895, 292.042
152.377, 297.290
152.859, 308.064
153.342, 333.723
153.824, 358.319
154.306, 375.912
154.788, 384.374
155.270, 389.085
155.752, 391.469
156.234, 391.145
156.716, 386.507
157.198, 366.531
157.680, 348.901
158.163, 343.892
158.645, 342.184
159.127, 364.539
159.609, 433.825
160.091, 543.076
160.573, 631.979
161.055, 676.614
161.538, 692.361
162.020, 691.260
162.502, 658.334
162.984, 624.283
163.466, 601.433
163.948, 590.250
164.430, 586.062
164.912, 588.593
165.394, 596.292
165.876, 607.237
166.359, 623.519
166.841, 640.979
167.323, 659.929
167.805, 682.205
168.287, 695.315
168.769, 677.240
169.251, 644.730
169.733, 628.883
170.216, 665.634
170.698, 715.776
171.180, 741.864
171.662, 734.679
172.144, 716.035
172.626, 692.937
173.108, 670.594
173.590, 663.984
174.072, 695.066
174.555, 743.096
175.037, 781.425
175.519, 803.951
176.001, 816.875
176.483, 822.046
176.965, 821.095
177.447, 818.155
177.929, 830.363
178.412, 849.776
178.894, 860.387
179.376, 852.058
179.858, 838.798
180.340, 842.955
180.822, 863.888
181.304, 886.665
181.786, 895.912
182.268, 896.419
182.751, 902.064
183.233, 918.149
183.715, 942.144
184.197, 971.576
184.679, 1007.401
185.161, 1038.658
185.643, 1052.105
186.125, 1050.034
186.607, 1046.154
187.090, 1044.088
187.572, 1042.941
188.054, 1037.384
188.536, 1026.982
189.018, 1019.831
189.500, 1025.751
189.982, 1042.930
190.464, 1063.989
190.947, 1088.411
191.429, 1115.179
191.911, 1135.915
192.393, 1150.002
192.875, 1159.648
193.357, 1168.158
193.839, 1175.481
194.321, 1180.687
194.803, 1180.766
195.286, 1176.383
195.768, 1181.309
196.250, 1200.201
196.732, 1222.233
197.214, 1220.578
197.696, 1190.836
198.178, 1169.792
198.661, 1185.655
199.143, 1239.759
199.625, 1277.451
200.107, 1290.811
200.589, 1289.062
201.071, 1296.487
201.553, 1314.859
202.035, 1335.228
202.517, 1350.507
202.999, 1359.423
203.482, 1374.386
203.964, 1397.396
204.446, 1426.925
204.928, 1459.525
205.410, 1497.038
205.892, 1531.623
206.374, 1554.000
206.857, 1560.308
207.339, 1575.767
207.821, 1606.488
208.303, 1649.245
208.785, 1685.499
209.267, 1712.791
209.749, 1739.476
210.231, 1767.877
210.713, 1792.183
211.195, 1843.166
211.678, 1933.296
212.160, 2059.619
212.642, 2180.300
213.124, 2304.771
213.606, 2410.625
214.088, 2465.673
214.570, 2445.926
215.052, 2449.540
215.535, 2501.979
216.017, 2603.341
216.499, 2702.406
216.981, 2811.506
217.463, 2902.827
217.945, 2937.787
218.427, 2887.775
218.909, 2850.591
219.391, 2850.591
219.874, 2889.421
220.356, 2935.755
220.838, 2993.394
221.320, 3053.958
221.802, 3104.793
222.284, 3138.298
222.766, 3179.000
223.248, 3236.114
223.731, 3313.958
224.213, 3380.200
224.695, 3429.168
225.177, 3472.333
225.659, 3526.487
226.141, 3594.839
226.623, 3667.909
227.105, 3741.224
227.587, 3811.532
228.070, 3899.469
228.552, 4014.551
229.034, 4140.009
229.516, 4245.083
229.998, 4312.752
230.480, 4388.323
230.962, 4473.040
231.444, 4543.823
231.926, 4728.424
232.409, 4841.989
232.891, 5021.857
233.373, 5185.659
233.855, 5334.254
234.337, 5422.021
234.819, 5587.324
235.301, 5723.911
235.783, 5866.310
236.266, 6013.161
236.748, 6166.692
237.230, 6332.616
237.712, 6524.858
238.194, 6711.850
238.676, 6883.772
239.158, 7047.480
239.640, 7178.595
240.122, 7271.754
240.605, 7335.079
241.087, 7390.588
241.569, 7471.127
242.051, 7497.428
242.533, 7435.450
243.015, 7266.213
243.497, 7047.531
243.980, 6775.615
244.462, 6457.446
244.944, 6104.833
245.426, 5702.852
245.908, 5289.630
246.390, 4872.018
246.872, 4432.684
247.354, 4039.328
247.836, 3707.412
248.318, 3420.184
248.801, 3140.098
249.283, 2859.281
249.765, 2597.911
250.247, 2363.674
250.729, 2162.069
251.211, 1977.668
251.693, 1818.362
252.176, 1677.756
252.658, 1539.070
253.140, 1396.514
253.622, 1260.023
254.104, 1131.434
254.586, 1009.209
255.068, 909.314
255.550, 838.314
256.032, 784.861
256.514, 726.261
256.997, 663.903
257.479, 597.906
257.961, 524.620
258.443, 435.074
258.925, 358.980
259.407, 295.527
259.889, 244.135
260.371, 204.006
260.854, 180.766
261.336, 158.234
261.818, 126.486
262.300, 79.750
262.782, 41.878
263.264, 14.875
263.746, 2.941
264.228, 15.788
264.711, 25.605
265.193, 26.821
265.675, 14.980
266.157, 13.715
266.639, 40.497
267.121, 64.053
267.603, 86.040
268.085, 107.612
268.567, 124.515
269.050, 152.856
269.532, 204.259
270.014, 284.480
270.496, 354.426
270.978, 408.350
271.460, 455.732
271.942, 515.991
272.424, 591.158
272.906, 671.045
273.389, 751.688
273.871, 832.289
274.353, 916.989
274.835, 1003.182
275.317, 1095.475
275.799, 1203.512
276.281, 1327.967
276.763, 1462.653
277.246, 1608.666
277.728, 1766.273
278.210, 1916.884
278.692, 2058.457
279.174, 2194.620
279.656, 2331.553
280.138, 2468.420
280.620, 2612.595
281.103, 2772.865
281.585, 2948.493
282.067, 3111.723
282.549, 3264.203
283.031, 3400.594
283.513, 3533.267
283.995, 3664.137
284.477, 3724.188
284.959, 3678.437
285.441, 3532.260
285.924, 3319.585
286.406, 3029.105
286.888, 2708.594
287.370, 2422.990
287.852, 2169.839
288.334, 1927.791
288.816, 1676.988
289.298, 1429.067
289.781, 1229.905
290.263, 1083.814
290.745, 962.777
291.227, 833.469
291.709, 698.323
292.191, 582.851
292.673, 504.546
293.155, 451.092
293.638, 385.689
294.120, 307.370
294.602, 233.144
295.084, 180.349
295.566, 147.059
296.048, 124.897
296.530, 117.345
297.012, 116.300
297.494, 106.572
297.977, 88.085
298.459, 64.231
298.941, 27.097
299.423, 13.897
299.905, 33.272
300.387, 10.485
300.869, 29.309
301.351, 54.513
301.833, 65.330
302.316, 65.732
302.798, 51.077
303.280, 29.177
303.762, 13.957
304.244, 15.100
304.726, 19.125
305.208, 10.766
305.690, 8.560
306.172, 29.574
306.655, 49.213
307.137, 65.664
307.619, 75.474
308.101, 71.603
308.583, 69.238
309.065, 86.497
309.547, 117.893
310.030, 140.894
310.512, 133.075
310.994, 114.949
311.476, 107.524
311.958, 123.086
312.440, 136.242
312.922, 126.825
313.404, 101.773
313.886, 82.814
314.369, 87.016
314.851, 96.746
315.333, 99.692
315.815, 92.562
316.297, 81.016
316.779, 64.903
317.261, 46.118
317.743, 28.136
318.225, 17.202
318.708, 3.819
319.190, 18.885
319.672, 56.202
320.154, 87.948
320.636, 102.932
321.118, 110.380
321.600, 123.690
322.082, 150.611
322.565, 179.881
323.047, 209.684
323.529, 242.714
324.011, 265.097
324.493, 265.942
324.975, 257.916
325.457, 255.416
325.939, 263.102
326.422, 273.079
326.904, 284.511
327.386, 297.563
327.868, 309.968
328.350, 323.991
328.832, 336.117
329.314, 342.893
329.796, 331.982
330.278, 331.876
330.760, 351.771
331.243, 390.713
331.725, 418.716
332.207, 433.296
332.689, 439.508
333.171, 439.689
333.653, 428.436
334.135, 422.182
334.617, 422.510
335.100, 429.284
335.582, 442.279
336.064, 464.144
336.546, 487.329
337.028, 507.418
337.510, 523.611
337.992, 538.723
338.474, 552.308
338.957, 565.265
339.439, 581.589
339.921, 602.929
340.403, 620.527
340.885, 628.926
341.367, 627.818
341.849, 623.200
342.331, 613.480
342.813, 603.523
343.296, 603.944
343.778, 615.188
344.260, 623.772
344.742, 622.622
345.224, 613.103
345.706, 601.938
346.188, 588.181
346.670, 577.433
347.152, 580.289
347.635, 594.261
348.117, 603.654
348.599, 599.718
349.081, 587.958
349.563, 579.638
350.045, 574.652
350.527, 573.023
351.009, 578.582
351.491, 587.388
351.974, 589.431
352.456, 575.149
352.938, 558.996
353.420, 565.271
353.902, 589.802
354.384, 606.340
354.866, 588.418
355.349, 554.080
355.831, 526.479
356.313, 512.567
356.795, 502.845
357.277, 491.630
357.759, 479.592
358.241, 468.093
358.723, 457.206
359.205, 446.207
359.688, 434.916
360.170, 423.117
360.652, 410.369
361.134, 398.818
361.616, 385.617
362.098, 366.629
362.580, 328.089
363.062, 292.994
363.544, 270.000
364.027, 260.043
364.509, 260.258
364.991, 234.172
365.473, 213.110
365.955, 205.453
366.437, 194.641
366.919, 179.621
367.401, 150.392
367.884, 135.349
368.366, 114.437
368.848, 97.715
369.330, 70.934
369.812, 42.902
370.294, 4.124
370.776, 19.774
371.258, 19.615
371.741, 1.399
372.223, 7.432
372.705, 4.198
373.187, 5.133
373.669, 18.397
374.151, 38.944
374.633, 52.318
375.115, 56.326
375.597, 54.302
376.079, 54.487
376.562, 58.743
377.044, 57.098
377.526, 41.571
378.008, 12.009
378.490, 4.460
378.972, 5.654
379.454, 0.612
379.936, 4.356
380.419, 5.795
380.901, 9.645
381.383, 20.333
381.865, 33.850
382.347, 37.102
382.829, 29.760
383.311, 16.166
383.793, 4.892
384.276, 29.676
384.758, 46.240
385.240, 48.050
385.722, 45.194
386.204, 45.807
386.686, 60.280
387.168, 71.414
387.650, 79.385
388.132, 74.673
388.615, 86.388
389.097, 91.547
389.579, 96.458
390.061, 110.543
390.543, 113.885
391.025, 120.807
391.507, 116.835
391.989, 114.742
392.471, 127.311
392.954, 157.635
393.436, 178.652
393.918, 171.847
394.400, 152.720
394.882, 137.478
395.364, 133.659
395.846, 131.402
396.328, 128.808
396.810, 125.794
397.293, 121.895
397.775, 111.800
398.257, 104.305
398.739, 104.416
399.221, 116.739
399.703, 131.240
400.185, 150.554
400.668, 171.767
401.150, 187.290
401.632, 194.926
402.114, 199.668
402.596, 203.197
403.078, 205.654
403.560, 206.237
404.042, 203.769
404.524, 200.917
405.007, 201.245
405.489, 205.030
405.971, 211.059
406.453, 218.574
406.935, 228.017
407.417, 242.368
407.899, 261.835
408.381, 284.744
408.863, 313.674
409.346, 347.450
409.828, 368.421
410.310, 368.608
410.792, 361.933
411.274, 376.889
411.756, 411.294
412.238, 447.126
412.720, 469.860
413.203, 486.728
413.685, 514.785
414.167, 558.068
414.649, 600.437
415.131, 623.271
415.613, 633.832
416.095, 646.476
416.577, 670.543
417.060, 697.150
417.542, 721.287
418.024, 742.342
418.506, 757.880
418.988, 762.385
419.470, 762.229
419.952, 762.845
420.434, 761.572
420.916, 766.193
421.398, 774.623
421.881, 790.024
422.363, 823.168
422.845, 898.084
423.327, 973.977
423.809, 1030.031
424.291, 1047.971
424.773, 1085.286
425.255, 1153.960
425.738, 1238.531
426.220, 1319.555
426.702, 1392.406
427.184, 1467.670
427.666, 1548.803
428.148, 1635.402
428.630, 1724.948
429.112, 1819.032
429.595, 1914.960
430.077, 2005.705
430.559, 2087.884
431.041, 2185.979
431.523, 2309.815
432.005, 2446.725
432.487, 2566.592
432.969, 2668.907
433.451, 2765.393
433.934, 2859.057
434.416, 2951.364
434.898, 3051.146
435.380, 3160.218
435.862, 3271.673
436.344, 3385.151
436.826, 3495.177
437.308, 3585.131
437.790, 3646.925
438.273, 3686.627
438.755, 3710.671
439.237, 3718.938
439.719, 3709.658
440.201, 3686.417
440.683, 3643.344
441.165, 3571.036
441.647, 3454.794
442.129, 3332.456
442.612, 3222.917
443.094, 3122.689
443.576, 3023.167
444.058, 2910.762
444.540, 2807.753
445.022, 2725.989
445.504, 2669.511
445.987, 2615.690
446.469, 2548.689
446.951, 2489.120
447.433, 2455.799
447.915, 2474.168
448.397, 2484.594
448.879, 2475.252
449.361, 2451.081
449.843, 2441.918
450.326, 2453.161
450.808, 2470.319
451.290, 2486.140
451.772, 2500.167
452.254, 2514.853
452.736, 2529.059
453.218, 2545.339
453.700, 2571.512
454.182, 2608.147
454.665, 2635.600
455.147, 2638.915
455.629, 2628.878
456.111, 2643.782
456.593, 2684.127
457.075, 2728.536
457.557, 2757.042
458.039, 2775.556
458.522, 2794.579
459.004, 2811.511
459.486, 2840.896
459.968, 2903.148
460.450, 2991.168
460.932, 3083.602
461.414, 3159.727
461.896, 3244.505
462.379, 3361.917
462.861, 3516.423
463.343, 3673.699
463.825, 3803.945
464.307, 3938.185
464.789, 4107.487
465.271, 4360.193
465.753, 4605.898
466.235, 4812.898
466.717, 4987.220
467.200, 5184.836
467.682, 5425.993
468.164, 5676.238
468.646, 5919.949
469.128, 6147.950
469.610, 6400.393
470.092, 6686.614
470.574, 6988.251
471.057, 7281.306
471.539, 7571.221
472.021, 7837.211
472.503, 8082.140
472.985, 8298.967
473.467, 8471.718
473.949, 8606.079
474.431, 8649.042
474.914, 8572.417
475.396, 8376.376
475.878, 8038.577
476.360, 7538.455
476.842, 6951.623
477.324, 6337.764
477.806, 5710.130
478.288, 5122.114
478.770, 4578.260
479.253, 4091.815
479.735, 3681.139
480.217, 3345.217
480.699, 3060.935
481.181, 2818.041
481.663, 2618.771
482.145, 2464.202
482.627, 2378.078
483.109, 2302.572
483.592, 2211.428
484.074, 2117.151
484.556, 2049.701
485.038, 2032.286
485.520, 2024.423
486.002, 2012.790
486.484, 1995.676
486.966, 1986.373
487.448, 1994.385
487.931, 2001.042
488.413, 1988.908
488.895, 1949.624
489.377, 1914.900
489.859, 1886.086
490.341, 1866.156
490.823, 1870.854
491.306, 1904.881
491.788, 1929.562
492.270, 1912.058
492.752, 1863.498
493.234, 1848.562
493.716, 1869.078
494.198, 1913.905
494.680, 1996.079
495.162, 2094.020
495.645, 2147.478
496.127, 2122.973
496.609, 2070.233
497.091, 2033.639
497.573, 2010.586
498.055, 1991.479
498.537, 1980.720
499.019, 1965.479
499.501, 1935.868
499.984, 1889.922
500.466, 1836.841
500.948, 1774.610
501.430, 1709.860
501.912, 1648.199
502.394, 1588.704
502.876, 1536.654
503.358, 1498.883
503.841, 1470.431
504.323, 1428.085
504.805, 1358.722
505.287, 1293.045
505.769, 1243.942
506.251, 1213.418
506.733, 1191.310
507.215, 1181.321
507.698, 1171.783
508.180, 1144.564
508.662, 1099.411
509.144, 1064.011
509.626, 1051.417
510.108, 1046.273
510.590, 1015.656
511.072, 960.998
511.554, 894.696
512.036, 810.226
512.519, 724.277
513.001, 664.906
513.483, 636.576
513.965, 616.701
514.447, 598.175
514.929, 574.788
515.411, 538.508
515.893, 474.146
516.375, 408.755
516.858, 353.462
517.340, 305.662
517.822, 256.532
518.304, 197.200
518.786, 141.494
519.268, 95.328
519.750, 60.220
520.232, 30.542
520.715, 11.810
521.197, 6.375
521.679, 36.139
522.161, 82.005
522.643, 125.512
523.125, 167.822
523.607, 203.668
524.089, 210.854
524.571, 186.870
525.054, 166.718
525.536, 173.895
526.018, 201.003
526.500, 223.772
526.982, 241.897
527.464, 252.891
527.946, 251.407
528.429, 241.594
528.911, 231.029
529.393, 224.239
529.875, 213.988
530.357, 196.959
530.839, 172.404
531.321, 139.009
531.803, 78.338
532.286, 23.315
532.768, 4.743
533.250, 0.172
533.732, 4.841
534.214, 29.758
534.696, 62.923
535.178, 95.851
535.660, 123.481
536.142, 160.468
536.625, 212.276
537.107, 271.839
537.589, 322.592
538.071, 361.933
538.553, 404.055
539.035, 456.612
539.517, 517.015
539.999, 575.377
540.481, 633.100
540.964, 676.396
541.446, 690.921
541.928, 682.242
542.410, 662.311
542.892, 631.079
543.374, 595.590
543.856, 557.085
544.338, 519.250
544.820, 488.962
545.303, 478.465
545.785, 468.314
546.267, 445.427
546.749, 411.454
547.231, 383.232
547.713, 365.966
548.195, 355.328
548.677, 350.104
549.159, 354.959
549.642, 353.932
550.124, 340.185
550.606, 325.941
551.088, 329.069
551.570, 358.743
552.052, 376.344
552.534, 370.719
553.016, 349.424
553.499, 340.398
553.981, 344.395
554.463, 343.115
554.945, 317.338
555.427, 278.511
555.909, 261.623
556.391, 269.053
556.873, 280.147
557.356, 276.335
557.838, 264.229
558.320, 254.301
558.802, 254.800
559.284, 249.582
559.766, 219.766
560.248, 177.842
560.730, 150.804
561.213, 161.493
561.695, 175.222
562.177, 181.379
562.659, 179.080
563.141, 171.643
563.623, 150.820
564.105, 133.518
564.587, 131.707
565.069, 150.877
565.552, 166.926
566.034, 181.463
566.516, 188.255
566.998, 172.009
567.480, 133.141
567.962, 100.702
568.444, 85.682
568.926, 81.566
569.408, 74.606
569.891, 65.980
570.373, 63.316
570.855, 82.813
571.337, 104.782
571.819, 102.617
572.301, 70.478
572.783, 46.317
573.265, 54.175
573.747, 77.938
574.230, 101.919
574.712, 136.384
575.194, 154.868
575.676, 142.264
576.158, 111.623
576.640, 93.236
577.122, 91.567
577.604, 92.602
578.086, 91.341
578.569, 88.553
579.051, 93.972
579.533, 107.487
580.015, 125.285
580.497, 152.179
580.979, 184.474
581.461, 193.822
581.943, 175.531
582.426, 157.047
582.908, 170.672
583.390, 204.018
583.872, 232.234
584.354, 243.743
584.836, 250.688
585.318, 262.310
585.800, 277.306
586.282, 290.646
586.765, 294.723
587.247, 300.706
587.729, 315.589
588.211, 342.321
588.693, 365.477
589.175, 376.491
589.657, 394.173
590.140, 431.758
590.622, 495.789
591.104, 538.894
591.586, 527.430
592.068, 540.833
592.550, 515.783
593.032, 685.523
593.514, 808.308
593.996, 886.617
594.479, 786.970
594.961, 917.284
595.443, 955.548
595.925, 990.123
596.407, 1102.279
596.889, 1098.541
597.371, 1148.333
597.853, 1252.825
598.335, 1346.222
598.818, 1384.714
599.300, 1405.771
599.782, 1441.907
600.264, 1511.404
600.746, 1579.000
601.228, 1639.965
601.710, 1699.273
602.192, 1765.533
602.674, 1843.290
603.157, 1917.996
603.639, 1984.282
604.121, 2044.079
604.603, 2108.288
605.085, 2176.639
605.567, 2245.782
606.049, 2305.671
606.531, 2364.835
607.013, 2448.727
607.496, 2560.599
607.978, 2675.577
608.460, 2758.988
608.942, 2837.665
609.424, 2949.080
609.906, 3114.557
610.388, 3290.362
610.870, 3448.858
611.353, 3606.396
611.835, 3785.427
612.317, 3994.793
612.799, 4225.314
613.281, 4468.164
613.763, 4728.808
614.245, 5032.203
614.727, 5382.735
615.209, 5764.471
615.692, 6163.359
616.174, 6575.001
616.656, 7041.219
617.138, 7562.583
617.620, 8124.402
618.102, 8705.400
618.584, 9317.990
619.067, 9980.941
619.549, 10690.780
620.031, 11454.596
620.513, 12274.840
620.995, 13154.737
621.477, 14085.129
621.959, 15033.271
622.441, 16061.655
622.923, 17194.012
623.406, 18421.199
623.888, 19746.332
624.370, 21185.645
624.852, 22701.713
625.334, 24271.404
625.816, 25888.018
626.298, 27646.436
626.780, 29556.377
627.263, 31590.420
627.745, 33688.363
628.227, 35865.293
628.709, 38226.055
629.191, 40812.363
629.673, 43458.699
630.155, 46070.438
630.637, 48596.133
631.119, 50890.391
631.602, 53085.988
632.084, 54848.293
632.566, 56031.762
633.048, 56601.492
633.530, 56497.766
634.012, 55620.164
634.494, 54142.934
634.976, 52009.406
635.458, 49247.801
635.941, 46259.457
636.423, 42911.961
636.905, 39509.363
