##NAMES=Cyrilovite
##RRUFFID=R060504
##IDEAL CHEMISTRY=NaFe^3+^_3_(PO_4_)_2_(OH)_4_&#183;2H_2_O
##LOCALITY=Gunheath pit, St. Austell, Cornwall, England
##OWNER=RRUFF
##SOURCE=Michael Scott
##DESCRIPTION=Group of yellowish-brown indistinct small crystals associated with leucophosphite, R060338, and green chalcosiderite, R060339
##STATUS=The identification of this mineral has been confirmed by single-crystal X-ray diffraction.
##URL=rruff.info/R060504
113.808, 0.000
114.290, 60.118
114.772, 96.052
115.255, 102.667
115.737, 70.959
116.219, 61.326
116.701, 30.602
117.183, 6.593
117.665, 16.501
118.147, 45.314
118.629, 54.931
119.112, 27.677
119.594, 24.613
120.076, 81.815
120.558, 137.947
121.040, 189.776
121.522, 231.694
122.004, 257.036
122.486, 282.346
122.968, 324.840
123.451, 378.904
123.933, 428.988
124.415, 447.835
124.897, 455.837
125.379, 483.888
125.861, 540.930
126.343, 619.136
126.825, 703.330
127.307, 794.051
127.790, 908.966
128.272, 1075.171
128.754, 1279.974
129.236, 1489.738
129.718, 1672.852
130.200, 1852.738
130.682, 2092.618
131.164, 2391.072
131.646, 2741.193
132.129, 3136.979
132.611, 3580.353
133.093, 4057.868
133.575, 4572.822
134.057, 5119.349
134.539, 5691.370
135.021, 6286.637
135.503, 6912.555
135.986, 7580.908
136.468, 8304.605
136.950, 9034.882
137.432, 9749.587
137.914, 10454.660
138.396, 11124.714
138.878, 11742.563
139.360, 12321.940
139.842, 12925.163
140.325, 13583.100
140.807, 14193.924
141.289, 14661.155
141.771, 14970.778
142.253, 15202.262
142.735, 15364.664
143.217, 15459.466
143.699, 15480.799
144.182, 15434.327
144.664, 15310.252
145.146, 15094.482
145.628, 14759.168
146.110, 14374.623
146.592, 13948.540
147.074, 13462.765
147.556, 12994.812
148.038, 12543.966
148.521, 12105.268
149.003, 11675.190
149.485, 11210.345
149.967, 10787.245
150.449, 10429.580
150.931, 10152.517
151.413, 9906.916
151.895, 9692.880
152.378, 9509.749
152.860, 9359.765
153.342, 9255.975
153.824, 9178.278
154.306, 9119.425
154.788, 9067.756
155.270, 9051.606
155.752, 9087.243
156.234, 9166.682
156.717, 9255.471
157.199, 9315.994
157.681, 9401.748
158.163, 9544.440
158.645, 9788.459
159.127, 10053.613
159.609, 10319.446
160.091, 10586.465
160.574, 10866.227
161.056, 11169.211
161.538, 11482.451
162.020, 11793.885
162.502, 12090.398
162.984, 12389.261
163.466, 12710.156
163.948, 13054.660
164.430, 13366.609
164.913, 13590.153
165.395, 13768.394
165.877, 13963.590
166.359, 14214.687
166.841, 14481.426
167.323, 14744.220
167.805, 15005.040
168.287, 15244.229
168.770, 15448.724
169.252, 15621.017
169.734, 15767.740
170.216, 15918.186
170.698, 16033.099
171.180, 16085.229
171.662, 16060.286
172.144, 15938.631
172.626, 15668.346
173.109, 15267.650
173.591, 14798.687
174.073, 14291.624
174.555, 13738.155
175.037, 13111.696
175.519, 12387.863
176.001, 11620.332
176.483, 10857.401
176.965, 10097.738
177.448, 9369.331
177.930, 8697.191
178.412, 8067.363
178.894, 7454.543
179.376, 6848.012
179.858, 6268.312
180.340, 5752.729
180.822, 5303.719
181.305, 4885.930
181.787, 4471.242
182.269, 4069.098
182.751, 3717.883
183.233, 3446.291
183.715, 3226.572
184.197, 3011.938
184.679, 2800.707
185.161, 2594.995
185.644, 2377.968
186.126, 2160.917
186.608, 1985.820
187.090, 1887.256
187.572, 1842.344
188.054, 1777.943
188.536, 1691.450
189.018, 1600.858
189.501, 1534.488
189.983, 1490.183
190.465, 1435.235
190.947, 1346.711
191.429, 1231.790
191.911, 1141.606
192.393, 1080.159
192.875, 1032.113
193.357, 977.312
193.840, 915.701
194.322, 850.773
194.804, 777.194
195.286, 696.583
195.768, 637.777
196.250, 606.799
196.732, 588.536
197.214, 552.172
197.697, 494.333
198.179, 444.897
198.661, 422.038
199.143, 426.604
199.625, 430.696
200.107, 430.711
200.589, 432.343
201.071, 454.248
201.553, 502.979
202.036, 544.709
202.518, 554.479
203.000, 527.323
203.482, 514.370
203.964, 527.062
204.446, 552.021
204.928, 542.460
205.410, 485.018
205.893, 430.881
206.375, 413.669
206.857, 436.418
207.339, 479.059
207.821, 548.207
208.303, 634.001
208.785, 691.302
209.267, 711.652
209.749, 722.264
210.232, 739.663
210.714, 761.738
211.196, 801.447
211.678, 864.468
212.160, 948.616
212.642, 1032.373
213.124, 1114.553
213.606, 1201.617
214.089, 1301.649
214.571, 1425.450
215.053, 1532.808
215.535, 1611.768
216.017, 1665.548
216.499, 1738.608
216.981, 1840.315
217.463, 1947.897
217.945, 2038.150
218.428, 2097.154
218.910, 2167.916
219.392, 2257.835
219.874, 2366.707
220.356, 2479.601
220.838, 2584.954
221.320, 2706.077
221.802, 2870.495
222.285, 3099.909
222.767, 3322.225
223.249, 3514.024
223.731, 3674.372
224.213, 3863.987
224.695, 4100.095
225.177, 4350.770
225.659, 4583.975
226.141, 4788.128
226.624, 4996.238
227.106, 5219.915
227.588, 5461.244
228.070, 5688.197
228.552, 5904.260
229.034, 6100.827
229.516, 6260.257
229.998, 6360.117
230.480, 6462.977
230.963, 6588.262
231.445, 6741.390
231.927, 6873.150
232.409, 6983.992
232.891, 7077.650
233.373, 7161.506
233.855, 7253.302
234.337, 7300.785
234.820, 7285.142
235.302, 7196.443
235.784, 7099.342
236.266, 6992.018
236.748, 6870.687
237.230, 6735.979
237.712, 6596.116
238.194, 6433.693
238.676, 6237.752
239.159, 5995.038
239.641, 5776.106
240.123, 5579.964
240.605, 5401.585
241.087, 5238.893
241.569, 5097.197
242.051, 4967.434
242.533, 4844.920
243.016, 4723.404
243.498, 4627.513
243.980, 4554.088
244.462, 4509.354
244.944, 4506.303
245.426, 4566.078
245.908, 4634.541
246.390, 4691.812
246.872, 4731.938
247.355, 4799.980
247.837, 4906.982
248.319, 5033.242
248.801, 5150.357
249.283, 5256.316
249.765, 5357.643
250.247, 5458.998
250.729, 5568.621
251.212, 5644.652
251.694, 5687.851
252.176, 5697.147
252.658, 5669.793
253.140, 5609.602
253.622, 5508.864
254.104, 5360.034
254.586, 5157.969
255.068, 4942.537
255.551, 4714.762
256.033, 4471.535
256.515, 4206.618
256.997, 3901.739
257.479, 3617.996
257.961, 3375.933
258.443, 3183.216
258.925, 2976.413
259.408, 2745.983
259.890, 2507.794
260.372, 2276.134
260.854, 2034.632
261.336, 1834.450
261.818, 1695.689
262.300, 1627.797
262.782, 1570.440
263.264, 1531.480
263.746, 1494.515
264.229, 1433.120
264.711, 1336.576
265.193, 1240.691
265.675, 1154.364
266.157, 1077.933
266.639, 1012.976
267.121, 961.131
267.603, 919.119
268.086, 879.226
268.568, 837.550
269.050, 813.283
269.532, 820.811
270.014, 863.573
270.496, 882.336
270.978, 871.701
271.460, 845.876
271.943, 819.409
272.425, 789.479
272.907, 773.074
273.389, 781.723
273.871, 816.004
274.353, 827.286
274.835, 805.888
275.317, 781.012
275.799, 794.454
276.282, 853.529
276.764, 908.279
277.246, 940.934
277.728, 953.036
278.210, 973.144
278.692, 1004.216
279.174, 1035.047
279.656, 1049.883
280.138, 1046.949
280.621, 1046.891
281.103, 1059.552
281.585, 1081.240
282.067, 1087.061
282.549, 1075.980
283.031, 1051.480
283.513, 1018.738
283.995, 977.730
284.478, 917.848
284.960, 829.936
285.442, 721.305
285.924, 621.414
286.406, 530.242
286.888, 446.847
287.370, 375.088
287.852, 313.343
288.335, 239.312
288.817, 140.600
289.299, 28.598
289.781, 69.438
290.263, 153.471
290.745, 224.349
291.227, 278.918
291.709, 319.538
292.191, 356.560
292.674, 400.125
293.156, 436.419
293.638, 424.404
294.120, 364.778
294.602, 305.477
295.084, 291.324
295.566, 310.239
296.048, 326.036
296.530, 337.514
297.013, 333.483
297.495, 282.146
297.977, 187.550
298.459, 99.355
298.941, 58.454
299.423, 47.750
299.905, 30.902
300.387, 1.575
300.870, 39.042
301.352, 73.493
301.834, 103.420
302.316, 121.065
302.798, 106.464
303.280, 79.928
303.762, 39.336
304.244, 69.219
304.727, 55.029
305.209, 57.751
305.691, 37.481
306.173, 22.910
306.655, 13.745
307.137, 25.884
307.619, 10.737
308.101, 6.667
308.583, 3.146
309.065, 15.553
309.548, 16.188
310.030, 11.668
310.512, 0.766
310.994, 11.717
311.476, 25.656
311.958, 43.582
312.440, 47.028
312.922, 9.866
313.405, 46.710
313.887, 88.786
314.369, 74.541
314.851, 62.964
315.333, 93.655
315.815, 173.254
316.297, 254.716
316.779, 311.248
317.262, 360.199
317.744, 422.433
318.226, 521.795
318.708, 620.043
319.190, 696.488
319.672, 750.020
320.154, 817.838
320.636, 914.062
321.118, 1028.160
321.601, 1150.882
322.083, 1282.938
322.565, 1421.408
323.047, 1569.860
323.529, 1727.326
324.011, 1873.843
324.493, 1994.182
324.975, 2109.473
325.457, 2233.362
325.940, 2393.533
326.422, 2532.654
326.904, 2634.895
327.386, 2706.594
327.868, 2781.283
328.350, 2861.219
328.832, 2943.325
329.314, 3026.706
329.797, 3125.736
330.279, 3205.562
330.761, 3257.575
331.243, 3290.046
331.725, 3325.781
332.207, 3374.913
332.689, 3415.571
333.171, 3436.800
333.654, 3428.240
334.136, 3435.605
334.618, 3469.115
335.100, 3512.874
335.582, 3535.242
336.064, 3527.152
336.546, 3517.361
337.028, 3512.954
337.510, 3511.962
337.992, 3517.429
338.475, 3532.332
338.957, 3549.270
339.439, 3553.549
339.921, 3539.585
340.403, 3542.055
340.885, 3578.245
341.367, 3644.092
341.849, 3686.859
342.332, 3699.893
342.814, 3712.909
343.296, 3763.341
343.778, 3850.555
344.260, 3926.464
344.742, 3973.369
345.224, 4003.969
345.706, 4059.484
346.189, 4142.364
346.671, 4224.398
347.153, 4278.820
347.635, 4308.986
348.117, 4337.493
348.599, 4371.002
349.081, 4403.029
349.563, 4421.363
350.045, 4426.758
350.528, 4424.833
351.010, 4428.940
351.492, 4429.266
351.974, 4401.807
352.456, 4337.637
352.938, 4257.137
353.420, 4180.355
353.902, 4105.187
354.384, 4024.349
354.867, 3931.658
355.349, 3838.076
355.831, 3756.398
356.313, 3688.176
356.795, 3621.173
357.277, 3544.875
357.759, 3464.645
358.241, 3389.935
358.724, 3326.592
359.206, 3269.354
359.688, 3213.444
360.170, 3158.542
360.652, 3111.999
361.134, 3071.680
361.616, 3042.574
362.098, 3025.868
362.581, 3057.073
363.063, 3078.924
363.545, 3066.512
364.027, 3025.890
364.509, 2995.923
364.991, 2974.872
365.473, 2974.417
365.955, 3001.557
366.437, 3093.438
366.919, 3163.528
367.402, 3184.569
367.884, 3175.144
368.366, 3185.488
368.848, 3240.371
369.330, 3295.646
369.812, 3336.432
370.294, 3356.374
370.776, 3385.246
371.259, 3432.747
371.741, 3484.488
372.223, 3514.290
372.705, 3494.652
373.187, 3440.930
373.669, 3426.855
374.151, 3405.800
374.633, 3377.133
375.116, 3315.163
375.598, 3297.287
376.080, 3261.907
376.562, 3225.812
377.044, 3204.442
377.526, 3148.130
378.008, 3115.120
378.490, 3047.789
378.973, 2943.864
379.455, 2818.385
379.937, 2673.594
380.419, 2512.439
380.901, 2358.162
381.383, 2218.004
381.865, 2081.953
382.347, 1931.651
382.829, 1768.719
383.311, 1610.466
383.794, 1470.582
384.276, 1342.200
384.758, 1199.318
385.240, 1038.049
385.722, 881.081
386.204, 749.434
386.686, 640.409
387.168, 542.209
387.651, 447.201
388.133, 360.396
388.615, 292.355
389.097, 241.409
389.579, 187.507
390.061, 103.542
390.543, 13.301
391.025, 56.800
391.508, 85.447
391.990, 106.439
392.472, 138.987
392.954, 179.820
393.436, 215.592
393.918, 253.540
394.400, 275.344
394.882, 267.095
395.364, 213.536
395.847, 157.461
396.329, 108.678
396.811, 63.411
397.293, 14.839
397.775, 43.660
398.257, 100.881
398.739, 149.449
399.221, 184.077
399.703, 234.104
400.186, 299.857
400.668, 380.483
401.150, 477.368
401.632, 610.743
402.114, 726.840
402.596, 808.647
403.078, 862.295
403.560, 938.331
404.043, 1049.130
404.525, 1161.192
405.007, 1250.299
405.489, 1309.101
405.971, 1383.808
406.453, 1483.001
406.935, 1594.621
407.417, 1695.783
407.900, 1785.126
408.382, 1869.564
408.864, 1953.912
409.346, 2037.259
409.828, 2106.688
410.310, 2160.180
410.792, 2211.673
411.274, 2276.612
411.756, 2353.503
412.238, 2438.310
412.721, 2530.415
413.203, 2629.046
413.685, 2734.981
414.167, 2847.833
414.649, 2966.683
415.131, 3096.817
415.613, 3232.017
416.095, 3361.814
416.578, 3484.312
417.060, 3602.245
417.542, 3719.110
418.024, 3833.795
418.506, 3944.905
418.988, 4044.902
419.470, 4145.917
419.952, 4259.866
420.435, 4394.116
420.917, 4509.168
421.399, 4577.300
421.881, 4625.551
422.363, 4684.475
422.845, 4789.271
423.327, 4875.866
423.809, 4925.728
424.291, 4939.848
424.774, 4947.411
425.256, 4946.872
425.738, 4942.839
426.220, 4939.578
426.702, 4955.822
427.184, 4938.945
427.666, 4876.855
428.148, 4784.762
428.630, 4698.566
429.113, 4625.629
429.595, 4540.998
430.077, 4432.520
430.559, 4299.965
431.041, 4169.793
431.523, 4042.698
432.005, 3911.940
432.487, 3765.957
432.970, 3604.776
433.452, 3446.885
433.934, 3295.892
434.416, 3152.298
434.898, 3013.462
435.380, 2878.296
435.862, 2749.818
436.344, 2636.780
436.827, 2531.233
437.309, 2414.898
437.791, 2283.485
438.273, 2145.852
438.755, 1998.730
439.237, 1850.354
439.719, 1719.853
440.201, 1629.140
440.683, 1551.158
441.165, 1459.496
441.648, 1352.552
442.130, 1261.482
442.612, 1205.037
443.094, 1170.210
443.576, 1145.622
444.058, 1133.494
444.540, 1125.344
445.022, 1111.136
445.505, 1097.142
445.987, 1107.074
446.469, 1153.861
446.951, 1216.839
447.433, 1290.241
447.915, 1376.972
448.397, 1460.274
448.879, 1526.760
449.362, 1596.982
449.844, 1696.203
450.326, 1835.299
450.808, 1975.024
451.290, 2099.647
451.772, 2215.376
452.254, 2375.738
452.736, 2589.110
453.218, 2820.715
453.701, 3059.294
454.183, 3300.653
454.665, 3487.465
455.147, 3597.847
455.629, 3678.943
456.111, 3815.834
456.593, 4000.850
457.075, 4185.242
457.557, 4341.801
458.040, 4478.113
458.522, 4610.473
459.004, 4740.139
459.486, 4857.796
459.968, 4960.953
460.450, 5045.910
460.932, 5105.442
461.414, 5134.140
461.897, 5140.960
462.379, 5136.469
462.861, 5116.451
463.343, 5068.684
463.825, 4967.786
464.307, 4849.680
464.789, 4738.338
465.271, 4646.915
465.754, 4528.051
466.236, 4350.941
466.718, 4150.517
467.200, 3962.166
467.682, 3792.810
468.164, 3631.766
468.646, 3478.334
469.128, 3331.234
469.610, 3191.087
470.093, 3055.739
470.575, 2932.931
471.057, 2829.484
471.539, 2749.287
472.021, 2667.787
472.503, 2579.266
472.985, 2495.214
473.467, 2436.359
473.949, 2403.873
474.432, 2373.093
474.914, 2329.760
475.396, 2283.574
475.878, 2271.685
476.360, 2294.043
476.842, 2312.516
477.324, 2281.315
477.806, 2226.641
478.289, 2200.420
478.771, 2217.486
479.253, 2253.125
479.735, 2295.277
480.217, 2339.245
480.699, 2374.213
481.181, 2378.977
481.663, 2386.030
482.146, 2424.687
482.628, 2496.846
483.110, 2549.336
483.592, 2542.677
484.074, 2519.949
484.556, 2514.530
485.038, 2540.380
485.520, 2572.170
486.002, 2612.499
486.484, 2656.396
486.967, 2692.891
487.449, 2722.253
487.931, 2742.922
488.413, 2750.778
488.895, 2743.122
489.377, 2750.210
489.859, 2777.366
490.341, 2810.058
490.824, 2836.913
491.306, 2858.585
491.788, 2867.071
492.270, 2859.993
492.752, 2840.971
493.234, 2813.112
493.716, 2778.103
494.198, 2746.249
494.681, 2731.863
495.163, 2722.679
495.645, 2699.579
496.127, 2661.641
496.609, 2602.386
497.091, 2507.846
497.573, 2392.636
498.055, 2273.830
498.537, 2156.248
499.020, 2034.878
499.502, 1899.995
499.984, 1759.277
500.466, 1628.167
500.948, 1522.769
501.430, 1422.333
501.912, 1313.769
502.394, 1192.570
502.876, 1078.745
503.359, 980.683
503.841, 885.507
504.323, 779.293
504.805, 642.023
505.287, 528.208
505.769, 450.497
506.251, 399.549
506.733, 340.404
507.216, 269.886
507.698, 199.062
508.180, 131.196
508.662, 66.231
509.144, 10.078
509.626, 38.230
510.108, 73.674
510.590, 79.029
511.073, 63.552
511.555, 62.439
512.037, 94.101
512.519, 134.169
513.001, 146.203
513.483, 138.238
513.965, 140.003
514.447, 188.066
514.929, 239.998
515.412, 257.662
515.894, 232.201
516.376, 206.310
516.858, 200.641
517.340, 201.896
517.822, 196.986
518.304, 183.503
518.786, 163.864
519.268, 132.291
519.751, 93.999
520.233, 67.678
520.715, 66.470
521.197, 58.573
521.679, 31.192
522.161, 17.836
522.643, 70.544
523.125, 128.960
523.607, 187.203
524.090, 241.200
524.572, 290.743
525.054, 327.135
525.536, 341.062
526.018, 353.268
526.500, 409.789
526.982, 503.485
527.464, 593.760
527.947, 655.174
528.429, 700.305
528.911, 743.140
529.393, 784.050
529.875, 827.492
530.357, 882.673
530.839, 938.714
531.321, 983.118
531.804, 1004.044
532.286, 1026.642
532.768, 1062.940
533.250, 1106.457
533.732, 1142.291
534.214, 1176.282
534.696, 1194.168
535.178, 1185.875
535.661, 1149.173
536.143, 1131.902
536.625, 1147.377
537.107, 1162.786
537.589, 1151.658
538.071, 1109.206
538.553, 1071.597
539.035, 1041.863
539.517, 1016.896
540.000, 997.538
540.482, 982.006
540.964, 948.538
541.446, 878.317
541.928, 789.791
542.410, 713.301
542.892, 649.131
543.374, 600.918
543.856, 582.345
544.339, 574.980
544.821, 557.923
545.303, 525.986
545.785, 490.888
546.267, 462.544
546.749, 432.591
547.231, 390.062
547.713, 307.165
548.195, 238.703
548.678, 203.292
549.160, 195.291
549.642, 181.708
550.124, 160.662
550.606, 136.857
551.088, 110.055
551.570, 78.353
552.052, 58.530
552.534, 54.731
553.017, 54.163
553.499, 42.231
553.981, 19.652
554.463, 4.849
554.945, 33.642
555.427, 56.652
555.909, 55.645
556.391, 33.339
556.874, 0.384
557.356, 37.982
557.838, 83.903
558.320, 142.926
558.802, 214.468
559.284, 286.177
559.766, 348.737
560.248, 409.469
560.731, 472.523
561.213, 525.619
561.695, 603.028
562.177, 732.244
562.659, 885.200
563.141, 1011.226
563.623, 1073.829
564.105, 1165.896
564.588, 1310.737
565.070, 1502.259
565.552, 1695.749
566.034, 1889.955
566.516, 2083.432
566.998, 2273.071
567.480, 2456.536
567.962, 2646.078
568.444, 2843.477
568.927, 3049.022
569.409, 3254.203
569.891, 3462.263
570.373, 3680.416
570.855, 3917.546
571.337, 4165.374
571.819, 4424.046
572.301, 4686.961
572.783, 4951.847
573.266, 5216.541
573.748, 5487.829
574.230, 5763.478
574.712, 6044.327
575.194, 6333.783
575.676, 6639.029
576.158, 6946.767
576.640, 7242.768
577.122, 7503.735
577.605, 7806.412
578.087, 8167.423
578.569, 8548.442
579.051, 8898.020
579.533, 9209.600
580.015, 9519.424
580.497, 9835.212
580.979, 10153.029
581.461, 10454.995
581.944, 10741.599
582.426, 11017.645
582.908, 11307.430
583.390, 11582.083
583.872, 11803.863
584.354, 11968.882
584.836, 12097.833
585.318, 12197.758
585.801, 12270.934
586.283, 12321.285
586.765, 12360.928
587.247, 12359.898
587.729, 12337.546
588.211, 12266.461
588.693, 12085.146
589.175, 11719.617
589.657, 11346.148
590.140, 11002.679
590.622, 10684.932
591.104, 10362.496
591.586, 10031.284
592.068, 9702.951
592.550, 9380.167
593.032, 9063.001
593.515, 8771.067
593.997, 8504.538
594.479, 8256.284
594.961, 8038.908
595.443, 7835.048
595.925, 7601.297
596.407, 7296.013
596.889, 7006.087
597.371, 6808.807
597.854, 6677.916
598.336, 6553.760
598.818, 6404.692
599.300, 6266.942
599.782, 6156.379
600.264, 6073.263
600.746, 5998.604
601.228, 5926.272
601.710, 5864.862
602.193, 5819.801
602.675, 5792.855
603.157, 5773.487
603.639, 5760.191
604.121, 5757.183
604.603, 5777.455
605.085, 5819.804
605.567, 5842.208
606.049, 5823.592
606.532, 5801.249
607.014, 5851.122
607.496, 5953.035
607.978, 6038.001
608.460, 6067.272
608.942, 6068.477
609.424, 6059.153
609.906, 6039.978
610.388, 6017.982
610.871, 6002.642
611.353, 5980.016
611.835, 5942.945
612.317, 5891.333
612.799, 5822.489
613.281, 5728.661
613.763, 5624.212
614.245, 5523.066
614.728, 5424.771
615.210, 5342.629
615.692, 5285.234
616.174, 5238.139
616.656, 5162.811
617.138, 5061.029
