##NAMES=Dravite
##RRUFFID=R060280
##IDEAL CHEMISTRY=NaMg_3_Al_6_(Si_6_O_18_)(BO_3_)_3_(OH)_3_OH
##LOCALITY=near Merelani, Tanzania
##OWNER=RRUFF
##SOURCE=Herb Obodda
##DESCRIPTION=Green fragment
##STATUS=The identification of this mineral has been confirmed by X-ray diffraction and chemical analysis
##URL=rruff.info/R060280
##MEASURED CHEMISTRY=(Na_0.45_Ca_0.40_[box]_0.15_)(Mg_0.89_Al_0.07_Ti_0.04_)_3_Al_6_(BO_3_)_3_(Si_0.93_B_0.07_)_6_O_18_((OH)_0.95_O_0.05_)_4_
182.9279, 0.0000000E+00
183.4100, 42.66211
183.8921, 0.4394530
184.3742, 5.056641
184.8564, 18.84570
185.3385, 33.54883
185.8206, 38.24023
186.3027, 37.98438
186.7848, 37.58789
187.2669, 36.57227
187.7491, 34.47852
188.2312, 23.33203
188.7133, 10.16211
189.1954, 30.79492
189.6775, 91.67383
190.1596, 155.2441
190.6418, 164.7812
191.1239, 121.7441
191.6060, 95.36328
192.0881, 129.6309
192.5702, 214.5117
193.0523, 258.3828
193.5345, 253.9844
194.0166, 227.0742
194.4987, 212.0742
194.9808, 209.0566
195.4629, 216.5664
195.9450, 236.2168
196.4272, 268.2617
196.9093, 300.2578
197.3914, 331.8730
197.8735, 363.3145
198.3556, 395.5469
198.8377, 428.7012
199.3199, 460.5918
199.8020, 488.9219
200.2841, 512.9277
200.7662, 539.9629
201.2483, 573.4180
201.7304, 607.3887
202.2126, 618.2852
202.6947, 594.8027
203.1768, 590.5020
203.6589, 650.7617
204.1410, 787.7949
204.6231, 897.8672
205.1053, 970.5039
205.5874, 1010.918
206.0695, 1026.426
206.5516, 1001.826
207.0337, 992.2227
207.5158, 1048.521
207.9980, 1189.824
208.4801, 1297.244
208.9622, 1345.693
209.4443, 1349.320
209.9264, 1379.959
210.4085, 1447.771
210.8907, 1522.650
211.3728, 1581.623
211.8549, 1623.955
212.3370, 1653.572
212.8191, 1665.348
213.3012, 1662.820
213.7834, 1679.656
214.2655, 1722.729
214.7476, 1774.428
215.2297, 1824.152
215.7118, 1882.646
216.1939, 1909.908
216.6761, 1891.834
217.1582, 1830.789
217.6403, 1775.871
218.1224, 1727.559
218.6045, 1684.873
219.0867, 1649.846
219.5688, 1631.084
220.0509, 1599.553
220.5330, 1546.697
221.0151, 1471.533
221.4972, 1399.463
221.9794, 1328.158
222.4615, 1261.990
222.9436, 1206.975
223.4257, 1171.857
223.9078, 1128.938
224.3899, 1068.305
224.8721, 986.7676
225.3542, 921.1426
225.8363, 873.0918
226.3184, 838.8496
226.8005, 812.0098
227.2826, 785.5352
227.7648, 781.5488
228.2469, 817.3027
228.7290, 903.5801
229.2111, 941.5312
229.6932, 906.9922
230.1753, 843.1191
230.6575, 804.4570
231.1396, 795.1133
231.6217, 804.6855
232.1038, 834.8281
232.5859, 891.0781
233.0680, 939.3359
233.5502, 983.8652
234.0323, 1017.248
234.5144, 1024.061
234.9965, 975.9004
235.4786, 949.6445
235.9607, 977.9609
236.4429, 1079.861
236.9250, 1142.611
237.4071, 1143.744
237.8892, 1120.045
238.3713, 1133.744
238.8534, 1199.301
239.3356, 1259.027
239.8177, 1294.436
240.2998, 1302.227
240.7819, 1295.996
241.2640, 1273.691
241.7461, 1242.482
242.2283, 1214.375
242.7104, 1186.584
243.1925, 1165.922
243.6746, 1158.727
244.1567, 1175.537
244.6388, 1168.918
245.1210, 1132.324
245.6031, 1076.344
246.0852, 1018.779
246.5673, 958.8145
247.0494, 899.3691
247.5315, 840.1543
248.0137, 776.8828
248.4958, 725.7363
248.9779, 695.0859
249.4600, 674.5625
249.9421, 641.9258
250.4242, 585.8867
250.9064, 535.8613
251.3885, 506.9160
251.8706, 513.2852
252.3527, 478.5156
252.8348, 375.3965
253.3169, 248.6484
253.7991, 190.6465
254.2812, 235.9121
254.7633, 287.0840
255.2454, 310.8125
255.7275, 305.6309
256.2097, 277.9414
256.6918, 214.6602
257.1739, 135.1562
257.6560, 72.66016
258.1381, 19.85156
258.6202, 0.8417970
259.1024, 37.20898
259.5845, 152.6113
260.0666, 221.1621
260.5487, 229.3926
261.0308, 200.7168
261.5129, 175.2461
261.9951, 149.3848
262.4772, 135.5977
262.9593, 142.1543
263.4414, 175.1992
263.9235, 199.2754
264.4056, 211.1602
264.8878, 217.5039
265.3699, 230.0195
265.8520, 249.3594
266.3341, 273.8516
266.8162, 308.4023
267.2983, 357.7461
267.7805, 381.8418
268.2626, 372.5215
268.7447, 346.5703
269.2268, 329.7207
269.7089, 320.4980
270.1910, 325.7539
270.6732, 353.3340
271.1553, 406.3574
271.6374, 450.0391
272.1195, 484.4414
272.6016, 509.4551
273.0837, 521.3438
273.5659, 518.1113
274.0480, 512.5820
274.5301, 507.5156
275.0122, 502.6016
275.4943, 510.3906
275.9764, 537.3281
276.4586, 564.8066
276.9407, 561.6172
277.4228, 524.4746
277.9049, 484.5879
278.3870, 454.2480
278.8691, 432.9473
279.3513, 407.3027
279.8334, 374.9238
280.3155, 344.3652
280.7976, 328.9785
281.2797, 329.3320
281.7618, 332.2656
282.2440, 343.9609
282.7261, 358.6133
283.2082, 321.4570
283.6903, 221.9219
284.1724, 109.5059
284.6545, 42.13281
285.1367, 19.33789
285.6188, 18.53320
286.1009, 44.20898
286.5830, 86.67578
287.0651, 98.29297
287.5472, 74.32812
288.0294, 46.28906
288.5115, 58.95508
288.9936, 105.8574
289.4757, 131.9922
289.9578, 105.7539
290.4399, 49.00195
290.9221, 27.06250
291.4042, 42.46289
291.8863, 61.12305
292.3684, 38.88672
292.8505, 12.93750
293.3326, 45.24609
293.8148, 38.30859
294.2969, 5.039063
294.7790, 41.86719
295.2611, 102.6367
295.7432, 144.6484
296.2253, 122.2422
296.7075, 57.00391
297.1896, 10.21680
297.6717, 3.789063
298.1538, 20.34180
298.6359, 37.89648
299.1180, 56.48242
299.6002, 73.29883
300.0823, 88.39648
300.5644, 100.2363
301.0465, 106.0742
301.5286, 104.4551
302.0107, 97.50000
302.4929, 87.35938
302.9750, 73.90039
303.4571, 56.05273
303.9392, 27.55859
304.4213, 4.093750
304.9034, 27.85547
305.3856, 35.31055
305.8677, 43.19141
306.3498, 70.49219
306.8319, 111.8438
307.3140, 148.6113
307.7961, 178.3711
308.2783, 193.9648
308.7604, 185.6914
309.2425, 144.3984
309.7246, 95.56445
310.2067, 46.67969
310.6888, 1.656250
311.1710, 30.18555
311.6531, 40.54297
312.1352, 38.42383
312.6173, 26.79297
313.0994, 0.2851560
313.5815, 18.52344
314.0637, 12.80273
314.5458, 7.640625
315.0279, 24.47266
315.5100, 28.65039
315.9921, 28.86328
316.4742, 28.48047
316.9564, 26.80469
317.4385, 29.10352
317.9206, 32.23828
318.4027, 41.45898
318.8848, 64.07422
319.3669, 116.7129
319.8491, 170.1777
320.3312, 208.3516
320.8133, 224.7168
321.2954, 260.2480
321.7776, 358.7051
322.2597, 466.8691
322.7418, 527.9980
323.2239, 464.4688
323.7060, 422.5371
324.1881, 447.3027
324.6703, 546.5723
325.1524, 628.9062
325.6345, 678.7461
326.1166, 713.2031
326.5987, 746.5039
327.0808, 772.7324
327.5630, 804.7363
328.0451, 842.8145
328.5272, 887.1074
329.0093, 942.5078
329.4914, 1017.352
329.9735, 1094.084
330.4557, 1161.271
330.9378, 1218.105
331.4199, 1266.316
331.9020, 1301.553
332.3841, 1327.773
332.8662, 1366.863
333.3484, 1430.764
333.8305, 1488.625
334.3126, 1519.789
334.7947, 1509.141
335.2768, 1517.738
335.7589, 1552.621
336.2411, 1606.133
336.7232, 1663.078
337.2053, 1726.031
337.6874, 1783.402
338.1695, 1831.082
338.6516, 1868.574
339.1338, 1898.816
339.6159, 1926.115
340.0980, 1938.750
340.5801, 1901.643
341.0622, 1806.615
341.5443, 1735.891
342.0265, 1743.465
342.5086, 1816.375
342.9907, 1822.594
343.4728, 1748.844
343.9549, 1659.906
344.4370, 1644.385
344.9192, 1694.506
345.4013, 1736.814
345.8834, 1743.246
346.3655, 1723.576
346.8476, 1698.074
347.3297, 1666.488
347.8119, 1637.473
348.2940, 1614.461
348.7761, 1600.066
349.2582, 1602.584
349.7403, 1628.438
350.2224, 1668.295
350.7046, 1711.676
351.1867, 1757.574
351.6688, 1802.340
352.1509, 1844.225
352.6330, 1882.482
353.1151, 1914.977
353.5973, 1935.219
354.0794, 1961.287
354.5615, 2005.857
355.0436, 2068.781
355.5257, 2149.543
356.0078, 2274.197
356.4900, 2402.547
356.9721, 2490.500
357.4542, 2514.080
357.9363, 2555.688
358.4184, 2680.047
358.9005, 2851.773
359.3827, 3009.689
359.8648, 3129.236
360.3469, 3229.389
360.8290, 3308.020
361.3111, 3358.604
361.7932, 3439.264
362.2754, 3596.436
362.7575, 3782.260
363.2396, 3946.850
363.7217, 4058.824
364.2038, 4162.803
364.6859, 4272.371
365.1681, 4388.293
365.6502, 4487.346
366.1323, 4558.418
366.6144, 4621.199
367.0965, 4690.449
367.5786, 4764.293
368.0608, 4847.516
368.5429, 4951.703
369.0250, 5067.721
369.5071, 5152.137
369.9892, 5181.156
370.4713, 5205.969
370.9535, 5256.119
371.4356, 5365.098
371.9177, 5420.658
372.3998, 5409.854
372.8819, 5350.963
373.3640, 5281.660
373.8462, 5196.729
374.3283, 5115.684
374.8104, 5055.000
375.2925, 5019.152
375.7746, 4942.158
376.2567, 4815.594
376.7389, 4663.490
377.2210, 4519.596
377.7031, 4385.148
378.1852, 4240.834
378.6673, 4073.533
379.1494, 3891.807
379.6316, 3727.404
380.1137, 3583.057
380.5958, 3442.943
381.0779, 3288.633
381.5600, 3123.928
382.0421, 2980.926
382.5243, 2872.389
383.0064, 2777.496
383.4885, 2656.328
383.9706, 2512.043
384.4527, 2375.805
384.9348, 2276.299
385.4170, 2195.838
385.8991, 2100.510
386.3812, 1979.707
386.8633, 1859.238
387.3454, 1764.188
387.8275, 1688.006
388.3097, 1614.350
388.7918, 1530.430
389.2739, 1449.482
389.7560, 1385.473
390.2381, 1340.984
390.7202, 1294.973
391.2024, 1231.523
391.6845, 1162.039
392.1666, 1098.963
392.6487, 1031.416
393.1308, 985.6465
393.6129, 989.4297
394.0951, 1036.697
394.5772, 1058.459
395.0593, 1028.465
395.5414, 973.0000
396.0235, 908.4961
396.5056, 804.7168
396.9878, 730.3125
397.4699, 713.5430
397.9520, 734.0391
398.4341, 727.8691
398.9162, 679.1914
399.3983, 619.9785
399.8805, 555.9629
400.3626, 472.4277
400.8447, 431.5957
401.3268, 451.9277
401.8089, 498.3496
402.2910, 520.4141
402.7732, 507.1816
403.2553, 502.5527
403.7374, 522.8574
404.2195, 564.6445
404.7017, 574.6289
405.1838, 548.3301
405.6659, 510.1973
406.1480, 479.8320
406.6301, 455.8164
407.1122, 429.9746
407.5944, 396.1426
408.0765, 362.9551
408.5586, 357.3516
409.0407, 382.4688
409.5228, 405.9395
410.0049, 394.4863
410.4871, 361.5566
410.9692, 356.1699
411.4513, 391.1113
411.9334, 422.1309
412.4155, 393.2051
412.8976, 319.3047
413.3798, 240.8379
413.8619, 167.9023
414.3440, 107.6621
414.8261, 68.17969
415.3082, 49.51758
415.7903, 43.29883
416.2725, 57.98828
416.7546, 76.72656
417.2367, 80.35742
417.7188, 47.03711
418.2009, 14.51953
418.6830, 4.222656
419.1652, 10.12500
419.6473, 10.18555
420.1294, 13.03516
420.6115, 36.56055
421.0936, 47.98242
421.5757, 42.41992
422.0579, 31.44336
422.5400, 9.792969
423.0221, 15.06250
423.5042, 31.33789
423.9863, 25.19141
424.4684, 25.56445
424.9506, 45.55469
425.4327, 88.24414
425.9148, 103.0410
426.3969, 69.82031
426.8790, 31.62891
427.3611, 29.55859
427.8433, 78.85156
428.3254, 114.6230
428.8075, 120.5293
429.2896, 109.6250
429.7717, 129.8672
430.2538, 186.7637
430.7360, 245.3574
431.2181, 286.5547
431.7002, 310.8418
432.1823, 322.2676
432.6644, 317.9551
433.1465, 311.0332
433.6287, 320.4609
434.1108, 343.6289
434.5929, 368.2363
435.0750, 395.4648
435.5571, 417.9746
436.0392, 414.4023
436.5214, 386.2812
437.0035, 366.4492
437.4856, 395.3672
437.9677, 444.2363
438.4498, 471.7031
438.9319, 459.3574
439.4141, 436.7070
439.8962, 416.1738
440.3783, 400.9199
440.8604, 398.7441
441.3425, 435.5098
441.8246, 469.3418
442.3068, 472.4961
442.7889, 434.8965
443.2710, 400.7500
443.7531, 378.9023
444.2352, 367.6816
444.7173, 365.0820
445.1995, 396.2422
445.6816, 408.0508
446.1637, 375.6836
446.6458, 305.9902
447.1279, 272.4434
447.6100, 298.8867
448.0922, 335.2969
448.5743, 358.1270
449.0564, 376.0137
449.5385, 352.2695
450.0206, 265.9238
450.5027, 156.0664
450.9849, 99.51758
451.4670, 104.8359
451.9491, 122.6250
452.4312, 138.6191
452.9133, 152.1328
453.3954, 156.0332
453.8776, 148.8047
454.3597, 142.4609
454.8418, 158.0762
455.3239, 187.2383
455.8060, 192.3789
456.2881, 158.9785
456.7703, 107.4727
457.2524, 56.93945
457.7345, 10.58594
458.2166, 19.10156
458.6987, 6.730469
459.1808, 17.51367
459.6630, 17.12500
460.1451, 15.07617
460.6272, 45.55469
461.1093, 45.61914
461.5914, 33.83984
462.0735, 33.48633
462.5557, 72.30078
463.0378, 104.1797
463.5199, 110.1836
464.0020, 92.66992
464.4841, 70.65820
464.9662, 27.32812
465.4484, 3.935547
465.9305, 3.113281
466.4126, 64.28320
466.8947, 103.8066
467.3768, 104.5547
467.8589, 82.32031
468.3411, 61.29688
468.8232, 40.03906
469.3053, 24.25195
469.7874, 23.04102
470.2695, 33.81836
470.7516, 3.037109
471.2338, 105.4004
471.7159, 200.0820
472.1980, 198.8828
472.6801, 105.4336
473.1622, 82.60547
473.6443, 170.9043
474.1265, 304.6094
474.6086, 374.6035
475.0907, 387.5430
475.5728, 386.6543
476.0549, 381.9277
476.5370, 382.4297
477.0192, 412.0879
477.5013, 472.3691
477.9834, 521.4121
478.4655, 510.0254
478.9476, 473.3711
479.4297, 457.6836
479.9119, 482.6934
480.3940, 524.7539
480.8761, 582.1992
481.3582, 647.2969
481.8403, 698.0449
482.3224, 729.3965
482.8046, 742.9727
483.2867, 734.7383
483.7688, 694.2324
484.2509, 667.1816
484.7330, 646.0938
485.2151, 646.3438
485.6973, 688.3008
486.1794, 825.2344
486.6615, 910.4727
487.1436, 905.2168
487.6258, 832.1758
488.1079, 800.9551
488.5900, 822.7812
489.0721, 855.9902
489.5542, 878.8457
490.0363, 891.4180
490.5185, 904.1113
491.0006, 916.5918
491.4827, 930.6738
491.9648, 950.6621
492.4469, 975.1016
492.9290, 995.4570
493.4112, 1007.494
493.8933, 1014.486
494.3754, 1016.730
494.8575, 1015.947
495.3396, 1022.527
495.8217, 1051.973
496.3039, 1088.438
496.7860, 1113.908
497.2681, 1124.461
497.7502, 1130.916
498.2323, 1123.881
498.7144, 1120.539
499.1966, 1144.311
499.6787, 1247.824
500.1608, 1333.203
500.6429, 1359.055
501.1250, 1329.348
501.6071, 1316.713
502.0893, 1341.740
502.5714, 1371.109
503.0535, 1389.199
503.5356, 1390.342
504.0177, 1395.312
504.4998, 1412.547
504.9820, 1425.684
505.4641, 1404.361
505.9462, 1340.506
506.4283, 1284.107
506.9104, 1248.457
507.3925, 1231.734
507.8747, 1233.914
508.3568, 1256.375
508.8389, 1271.957
509.3210, 1251.201
509.8031, 1208.162
510.2852, 1184.725
510.7674, 1190.090
511.2495, 1198.064
511.7316, 1186.199
512.2137, 1156.795
512.6958, 1114.900
513.1779, 1040.207
513.6600, 972.1348
514.1422, 937.9844
514.6243, 934.9805
515.1064, 942.2188
515.5885, 974.1289
516.0706, 996.7852
516.5527, 986.5605
517.0349, 907.6426
517.5170, 863.1758
517.9991, 890.1211
518.4812, 944.3613
518.9633, 971.8691
519.4454, 949.9746
519.9276, 942.9141
520.4097, 972.7715
520.8918, 1028.861
521.3739, 1031.545
521.8560, 961.1445
522.3381, 908.7969
522.8203, 948.6934
523.3024, 1073.283
523.7845, 1174.602
524.2666, 1242.053
524.7487, 1289.725
525.2308, 1337.318
525.7130, 1384.414
526.1951, 1422.465
526.6772, 1442.912
527.1593, 1461.203
527.6415, 1479.852
528.1236, 1499.033
528.6057, 1551.674
529.0878, 1707.717
529.5699, 1865.338
530.0521, 1930.816
530.5342, 1867.279
531.0163, 1832.627
531.4984, 1896.279
531.9805, 2004.914
532.4626, 2102.412
532.9448, 2193.736
533.4269, 2257.859
533.9090, 2281.256
534.3911, 2272.561
534.8732, 2267.729
535.3553, 2270.674
535.8375, 2271.209
536.3196, 2261.891
536.8017, 2241.742
537.2838, 2238.109
537.7659, 2252.768
538.2480, 2274.562
538.7302, 2303.328
539.2123, 2334.371
539.6944, 2326.703
540.1765, 2257.074
540.6586, 2171.582
541.1407, 2135.389
541.6229, 2138.848
542.1050, 2145.430
542.5871, 2149.176
543.0692, 2137.504
543.5513, 2085.658
544.0334, 1993.604
544.5156, 1921.340
544.9977, 1925.646
545.4798, 1945.025
545.9619, 1929.072
546.4440, 1825.844
546.9261, 1749.828
547.4083, 1735.309
547.8904, 1754.182
548.3725, 1755.447
548.8546, 1734.184
549.3367, 1702.834
549.8188, 1659.109
550.3010, 1605.238
550.7831, 1568.717
551.2652, 1551.635
551.7473, 1544.842
552.2294, 1552.971
552.7115, 1571.936
553.1937, 1551.270
553.6758, 1479.059
554.1579, 1400.137
554.6400, 1374.518
555.1221, 1387.719
555.6042, 1398.990
556.0864, 1396.975
556.5685, 1383.615
557.0506, 1350.938
557.5327, 1306.209
558.0148, 1274.863
558.4969, 1281.656
558.9791, 1296.367
559.4612, 1303.631
559.9433, 1303.504
560.4254, 1286.826
560.9075, 1230.086
561.3896, 1168.416
561.8718, 1132.195
562.3539, 1134.955
562.8360, 1142.170
563.3181, 1161.283
563.8002, 1178.572
564.2823, 1155.570
564.7645, 1083.977
565.2466, 1009.613
565.7287, 946.6035
566.2108, 895.6367
566.6929, 872.6074
567.1750, 879.5391
567.6572, 872.0391
568.1393, 788.1973
568.6214, 667.4160
569.1035, 595.2129
569.5856, 591.9551
570.0677, 606.5254
570.5499, 614.5938
571.0320, 608.6074
571.5141, 576.9336
571.9962, 482.3555
572.4783, 394.1074
572.9604, 343.9375
573.4426, 326.1445
573.9247, 308.3926
574.4068, 276.5098
574.8889, 252.6035
575.3710, 249.2031
575.8531, 273.6680
576.3353, 279.0566
576.8174, 258.1191
577.2995, 228.7246
577.7816, 210.8730
578.2637, 207.1797
578.7458, 184.3477
579.2280, 131.1797
579.7101, 68.57227
580.1922, 34.12695
580.6743, 24.46289
581.1564, 20.50586
581.6385, 18.84375
582.1207, 15.00977
582.6028, 4.115234
583.0849, 12.16211
583.5670, 32.76758
584.0491, 82.52148
584.5313, 120.7207
585.0134, 106.1094
585.4955, 9.269531
585.9776, 62.83594
586.4597, 68.85352
586.9418, 40.67188
587.4240, 13.38086
587.9061, 13.58008
588.3882, 34.31445
588.8703, 46.41602
589.3524, 51.38867
589.8345, 56.70508
590.3167, 67.21680
590.7988, 63.65039
591.2809, 28.70117
591.7630, 29.69141
592.2451, 64.05664
592.7272, 73.67188
593.2094, 67.82617
593.6915, 41.69922
594.1736, 10.07031
594.6557, 3.253906
595.1378, 30.07812
595.6199, 65.02734
596.1021, 96.61523
596.5842, 122.2402
597.0663, 138.2344
597.5484, 144.0996
598.0305, 139.1055
598.5126, 111.4707
598.9948, 69.60547
599.4769, 49.88281
599.9590, 72.78711
600.4411, 95.47266
600.9232, 104.3828
601.4053, 98.95508
601.8875, 89.36719
602.3696, 74.30273
602.8517, 58.38086
603.3338, 37.97656
603.8159, 15.17969
604.2980, 29.87109
604.7802, 95.50586
605.2623, 166.8457
605.7444, 179.0898
606.2265, 149.2070
606.7086, 121.9160
607.1907, 114.5840
607.6729, 115.0645
608.1550, 114.9297
608.6371, 114.7793
609.1192, 116.6504
609.6013, 120.8965
610.0834, 127.7891
610.5656, 139.3340
611.0477, 157.0898
611.5298, 167.1055
612.0119, 157.0078
612.4940, 150.8262
612.9761, 172.6680
613.4583, 244.8555
613.9404, 253.9473
614.4225, 169.5645
614.9046, 66.57812
615.3867, 69.78125
615.8688, 169.5488
616.3510, 234.0664
616.8331, 207.6406
617.3152, 148.8730
617.7973, 153.2988
618.2794, 206.0117
618.7615, 249.3457
619.2437, 238.6797
619.7258, 216.0391
620.2079, 208.6738
620.6900, 216.3867
621.1721, 244.1523
621.6542, 344.7129
622.1364, 432.7402
622.6185, 444.4551
623.1006, 322.4062
623.5827, 250.4355
624.0648, 237.4746
624.5469, 263.4844
625.0291, 316.9453
625.5112, 408.5898
625.9933, 461.5645
626.4754, 451.3047
626.9575, 413.8535
627.4396, 420.2441
627.9218, 462.9395
628.4039, 502.5547
628.8860, 527.6035
629.3681, 539.9746
629.8502, 528.0352
630.3323, 492.5742
630.8145, 460.2930
631.2966, 455.0625
631.7787, 456.7383
632.2608, 453.7617
632.7429, 447.8105
633.2250, 429.7520
633.7072, 367.8574
634.1893, 311.6523
634.6714, 305.8828
635.1535, 389.0938
635.6356, 430.7285
636.1177, 412.4062
636.5999, 359.0684
637.0820, 305.3652
637.5641, 250.8691
638.0462, 214.8496
638.5283, 215.7676
639.0104, 228.3262
639.4926, 192.5352
639.9747, 116.7520
640.4568, 50.41211
640.9389, 27.39844
641.4210, 23.19922
641.9031, 15.62500
642.3853, 3.841797
642.8674, 4.949219
643.3495, 7.654297
643.8316, 4.140625
644.3137, 8.724609
644.7958, 40.66406
645.2780, 63.11719
645.7601, 76.15039
646.2422, 78.29102
646.7243, 63.33789
647.2064, 25.06250
647.6885, 6.738281
648.1707, 21.69727
648.6528, 52.33398
649.1349, 59.85938
649.6170, 48.81836
650.0991, 47.67383
650.5812, 81.92383
651.0634, 125.9492
651.5455, 148.0254
652.0276, 150.8828
652.5097, 149.5391
652.9918, 136.5840
