##NAMES=Dugganite
##RRUFFID=R060498
##IDEAL CHEMISTRY=Pb^2+^_3_Zn^2+^_3_(Te^6+^O_6_)(As^5+^O_4_)_2_
##LOCALITY=400' level, Empire mine, Tombstone, Cochise County, Arizona, USA
##OWNER=RRUFF
##SOURCE=Michael Scott
##DESCRIPTION=Green colored druse of prismatic crystals
##STATUS=The identification of this mineral has been confirmed by single-crystal X-ray diffraction.
##URL=rruff.info/R060498
137.914, 0.000
138.396, 50.656
138.878, 146.523
139.360, 233.316
139.842, 308.438
140.325, 351.617
140.807, 382.773
141.289, 415.715
141.771, 454.867
142.253, 476.438
142.735, 460.941
143.217, 409.723
143.699, 423.344
144.182, 556.059
144.664, 702.512
145.146, 742.102
145.628, 571.848
146.110, 453.777
146.592, 451.168
147.074, 587.555
147.556, 729.008
148.038, 891.203
148.521, 1050.211
149.003, 1169.211
149.485, 1207.379
149.967, 1243.648
150.449, 1300.723
150.931, 1393.133
151.413, 1477.832
151.895, 1549.203
152.378, 1614.234
152.860, 1686.938
153.342, 1783.703
153.824, 1884.391
154.306, 1980.770
154.788, 2076.902
155.270, 2167.473
155.752, 2254.559
156.234, 2340.434
156.717, 2428.867
157.199, 2529.984
157.681, 2631.133
158.163, 2723.344
158.645, 2776.613
159.127, 2848.160
159.609, 2962.473
160.091, 3114.180
160.574, 3256.406
161.056, 3366.730
161.538, 3457.645
162.020, 3540.223
162.502, 3614.672
162.984, 3676.273
163.466, 3729.703
163.948, 3772.938
164.430, 3802.383
164.913, 3806.484
165.395, 3795.992
165.877, 3785.859
166.359, 3798.824
166.841, 3803.418
167.323, 3789.445
167.805, 3770.852
168.287, 3740.730
168.770, 3655.738
169.252, 3558.832
169.734, 3465.480
170.216, 3385.359
170.698, 3334.238
171.180, 3253.863
171.662, 3137.816
172.144, 3002.129
172.626, 2843.043
173.109, 2667.320
173.591, 2490.703
174.073, 2308.844
174.555, 2134.195
175.037, 1983.766
175.519, 1869.270
176.001, 1762.945
176.483, 1621.430
176.965, 1452.559
177.448, 1308.121
177.930, 1242.676
178.412, 1224.164
178.894, 1193.496
179.376, 1137.840
179.858, 1061.602
180.340, 957.695
180.822, 829.039
181.305, 711.145
181.787, 656.887
182.269, 642.039
182.751, 594.938
183.233, 470.070
183.715, 312.012
184.197, 224.680
184.679, 210.242
185.161, 208.453
185.644, 132.359
186.126, 4.289
186.608, 62.625
187.090, 9.934
187.572, 169.719
188.054, 255.914
188.536, 260.516
189.018, 229.070
189.501, 211.543
189.983, 206.477
190.465, 195.754
190.947, 166.773
191.429, 123.750
191.911, 94.621
192.393, 81.406
192.875, 76.934
193.357, 74.172
193.840, 73.688
194.322, 69.121
194.804, 59.168
195.286, 44.105
195.768, 15.887
196.250, 18.824
196.732, 58.418
197.214, 105.555
197.697, 162.438
198.179, 205.137
198.661, 211.219
199.143, 178.656
199.625, 174.832
200.107, 215.461
200.589, 271.395
201.071, 267.199
201.553, 187.273
202.036, 112.828
202.518, 104.488
203.000, 174.625
203.482, 198.219
203.964, 154.938
204.446, 68.074
204.928, 12.152
205.410, 5.418
205.893, 14.242
206.375, 105.336
206.857, 291.594
207.339, 407.309
207.821, 406.148
208.303, 325.297
208.785, 337.965
209.267, 486.199
209.749, 634.469
210.232, 672.152
210.714, 563.906
211.196, 496.160
211.678, 508.992
212.160, 588.414
212.642, 627.055
213.124, 606.602
213.606, 585.859
214.089, 617.508
214.571, 723.285
215.053, 821.160
215.535, 896.160
216.017, 950.996
216.499, 1015.754
216.981, 1092.445
217.463, 1174.805
217.945, 1257.141
218.428, 1334.430
218.910, 1411.559
219.392, 1484.648
219.874, 1552.773
220.356, 1634.137
220.838, 1739.184
221.320, 1841.074
221.802, 1909.047
222.285, 1926.770
222.767, 1949.082
223.249, 1993.320
223.731, 2062.410
224.213, 2102.480
224.695, 2091.520
225.177, 2078.414
225.659, 2124.797
226.141, 2282.754
226.624, 2399.094
227.106, 2425.191
227.588, 2350.691
228.070, 2323.438
228.552, 2367.207
229.034, 2436.070
229.516, 2470.629
229.998, 2438.051
230.480, 2430.809
230.963, 2482.898
231.445, 2606.336
231.927, 2673.254
232.409, 2658.816
232.891, 2607.684
233.373, 2576.793
233.855, 2583.926
234.337, 2576.941
234.820, 2540.000
235.302, 2467.074
235.784, 2404.855
236.266, 2353.316
236.748, 2319.004
237.230, 2310.824
237.712, 2344.746
238.194, 2365.777
238.676, 2355.340
239.159, 2305.320
239.641, 2275.750
240.123, 2272.855
240.605, 2287.238
241.087, 2308.027
241.569, 2349.273
242.051, 2372.484
242.533, 2362.656
243.016, 2310.883
243.498, 2259.613
243.980, 2191.773
244.462, 2134.410
244.944, 2139.062
245.426, 2242.863
245.908, 2336.504
246.390, 2385.594
246.872, 2382.133
247.355, 2369.465
247.837, 2350.477
248.319, 2317.434
248.801, 2256.973
249.283, 2155.984
249.765, 2047.434
250.247, 1939.500
250.729, 1832.926
251.212, 1727.840
251.694, 1626.223
252.176, 1528.395
252.658, 1434.414
253.140, 1342.602
253.622, 1264.969
254.104, 1212.723
254.586, 1199.191
255.068, 1150.086
255.551, 1050.840
256.033, 931.047
256.515, 835.844
256.997, 772.527
257.479, 727.430
257.961, 699.012
258.443, 692.613
258.925, 668.543
259.408, 623.336
259.890, 569.852
260.372, 522.105
260.854, 472.090
261.336, 426.309
261.818, 381.984
262.300, 333.559
262.782, 336.055
263.264, 396.203
263.746, 492.012
264.229, 599.777
264.711, 739.250
265.193, 834.324
265.675, 847.898
266.157, 767.574
266.639, 721.160
267.121, 719.430
267.603, 738.070
268.086, 742.328
268.568, 725.488
269.050, 718.570
269.532, 737.141
270.014, 783.965
270.496, 814.422
270.978, 826.965
271.460, 826.793
271.943, 812.059
272.425, 773.594
272.907, 764.617
273.389, 817.008
273.871, 930.605
274.353, 988.684
274.835, 970.152
275.317, 939.086
275.799, 983.391
276.282, 1117.250
276.764, 1239.121
277.246, 1313.191
277.728, 1343.102
278.210, 1391.273
278.692, 1463.297
279.174, 1532.973
279.656, 1566.727
280.138, 1561.203
280.621, 1548.844
281.103, 1528.355
281.585, 1505.387
282.067, 1538.055
282.549, 1644.395
283.031, 1735.074
283.513, 1696.613
283.995, 1528.910
284.478, 1381.535
284.960, 1301.133
285.442, 1271.523
285.924, 1238.359
286.406, 1205.961
286.888, 1146.703
287.370, 1002.609
287.852, 785.457
288.335, 633.301
288.817, 611.273
289.299, 663.098
289.781, 620.238
290.263, 477.316
290.745, 329.156
291.227, 271.297
291.709, 286.621
292.191, 289.102
292.674, 260.539
293.156, 205.574
293.638, 118.770
294.120, 1.426
294.602, 101.227
295.084, 141.422
295.566, 135.297
296.048, 132.734
296.530, 142.816
297.013, 160.090
297.495, 178.828
297.977, 197.164
298.459, 209.801
298.941, 212.535
299.423, 204.594
299.905, 185.207
300.387, 150.160
300.870, 107.906
301.352, 75.887
301.834, 48.910
302.316, 3.270
302.798, 74.180
303.280, 177.227
303.762, 305.574
304.244, 465.363
304.727, 620.801
305.209, 725.516
305.691, 790.242
306.173, 852.848
306.655, 904.090
307.137, 973.652
307.619, 1104.445
308.101, 1315.270
308.583, 1529.777
309.065, 1695.129
309.548, 1821.102
310.030, 1922.969
310.512, 1982.031
310.994, 2039.852
311.476, 2133.914
311.958, 2273.293
312.440, 2420.602
312.922, 2562.852
313.405, 2698.996
313.887, 2828.762
314.369, 2946.082
314.851, 3062.055
315.333, 3181.477
315.815, 3304.648
316.297, 3435.090
316.779, 3589.508
317.262, 3745.707
317.744, 3881.668
318.226, 3906.316
318.708, 3984.188
319.190, 4242.910
319.672, 4684.035
320.154, 5006.492
320.636, 5023.117
321.118, 4935.891
321.601, 4911.719
322.083, 5060.051
322.565, 5198.645
323.047, 5276.000
323.529, 5296.723
324.011, 5320.375
324.493, 5384.848
324.975, 5435.691
325.457, 5438.742
325.940, 5283.484
326.422, 5198.531
326.904, 5252.594
327.386, 5412.293
327.868, 5507.547
328.350, 5479.320
328.832, 5429.809
329.314, 5406.523
329.797, 5450.555
330.279, 5460.812
330.761, 5419.074
331.243, 5345.785
331.725, 5293.055
332.207, 5281.656
332.689, 5265.141
333.171, 5221.965
333.654, 5134.777
334.136, 5074.594
334.618, 5047.863
335.100, 5044.699
335.582, 5053.254
336.064, 5085.902
336.546, 5103.023
337.028, 5076.184
337.510, 4993.422
337.992, 4993.832
338.475, 5108.621
338.957, 5260.250
339.439, 5345.715
339.921, 5344.828
340.403, 5370.102
340.885, 5471.668
341.367, 5634.359
341.849, 5703.664
342.332, 5661.156
342.814, 5591.035
343.296, 5580.695
343.778, 5629.406
344.260, 5673.234
344.742, 5693.812
345.224, 5703.609
345.706, 5741.398
346.189, 5811.543
346.671, 5879.051
347.153, 5910.289
347.635, 5915.012
348.117, 5928.730
348.599, 5960.012
349.081, 5997.652
349.563, 6029.461
350.045, 6052.027
350.528, 6049.805
351.010, 5983.699
351.492, 5885.555
351.974, 5822.656
352.456, 5808.957
352.938, 5801.652
353.420, 5758.613
353.902, 5684.426
354.384, 5593.121
354.867, 5494.949
355.349, 5382.012
355.831, 5246.172
356.313, 5087.836
356.795, 4914.855
357.277, 4732.023
357.759, 4542.031
358.241, 4349.211
358.724, 4158.270
359.206, 3967.438
359.688, 3775.414
360.170, 3584.062
360.652, 3398.465
361.134, 3209.043
361.616, 3029.359
362.098, 2870.582
362.581, 2749.809
363.063, 2634.348
363.545, 2520.664
364.027, 2405.156
364.509, 2273.355
364.991, 2109.777
365.473, 1934.539
365.955, 1758.523
366.437, 1563.934
366.919, 1395.020
367.402, 1256.059
367.884, 1145.941
368.366, 1061.562
368.848, 1047.160
369.330, 1020.312
369.812, 949.930
370.294, 808.992
370.776, 705.285
371.259, 652.668
371.741, 629.832
372.223, 614.977
372.705, 641.277
373.187, 613.094
373.669, 473.387
374.151, 213.359
374.633, 94.316
375.116, 165.395
375.598, 294.270
376.080, 355.340
376.562, 335.352
377.044, 304.758
377.526, 272.277
378.008, 238.285
378.490, 208.164
378.973, 184.070
379.455, 153.902
379.937, 110.727
380.419, 55.527
380.901, 13.062
381.383, 99.496
381.865, 185.965
382.347, 241.008
382.829, 264.504
383.311, 269.906
383.794, 256.375
384.276, 228.906
384.758, 205.312
385.240, 189.316
385.722, 157.453
386.204, 69.832
386.686, 52.883
387.168, 163.270
387.651, 254.211
388.133, 313.488
388.615, 301.367
389.097, 222.207
389.579, 168.090
390.061, 231.406
390.543, 340.883
391.025, 416.617
391.508, 410.098
391.990, 394.723
392.472, 419.945
392.954, 473.465
393.436, 510.414
393.918, 500.562
394.400, 480.168
394.882, 475.555
395.364, 505.949
395.847, 521.414
396.329, 495.207
396.811, 451.617
397.293, 429.398
397.775, 439.848
398.257, 468.332
398.739, 514.004
399.221, 580.133
399.703, 640.672
400.186, 692.309
400.668, 737.332
401.150, 775.336
401.632, 784.348
402.114, 821.160
402.596, 902.383
403.078, 1020.320
403.560, 1123.590
404.043, 1216.430
404.525, 1288.980
405.007, 1329.855
405.489, 1330.223
405.971, 1351.855
406.453, 1410.906
406.935, 1479.652
407.417, 1491.332
407.900, 1438.242
408.382, 1403.500
408.864, 1434.012
409.346, 1520.668
409.828, 1597.996
410.310, 1667.238
410.792, 1722.652
411.274, 1752.723
411.756, 1762.352
412.238, 1773.965
412.721, 1794.102
413.203, 1821.297
413.685, 1846.578
414.167, 1872.703
414.649, 1923.180
415.131, 2050.816
415.613, 2201.703
416.095, 2293.832
416.578, 2292.617
417.060, 2274.133
417.542, 2303.535
418.024, 2358.176
418.506, 2388.016
418.988, 2338.082
419.470, 2278.852
419.952, 2250.320
420.435, 2257.395
420.917, 2283.164
421.399, 2328.566
421.881, 2387.953
422.363, 2455.988
422.845, 2588.152
423.327, 2672.031
423.809, 2648.914
424.291, 2532.469
424.774, 2479.195
425.256, 2550.008
425.738, 2643.215
426.220, 2708.879
426.702, 2720.211
427.184, 2756.039
427.666, 2836.801
428.148, 2934.672
428.630, 2982.785
429.113, 2949.473
429.595, 2940.223
430.077, 2998.543
430.559, 3124.352
431.041, 3252.242
431.523, 3392.375
432.005, 3507.797
432.487, 3539.703
432.970, 3488.836
433.452, 3464.773
433.934, 3500.766
434.416, 3572.141
434.898, 3640.836
435.380, 3706.070
435.862, 3730.938
436.344, 3652.039
436.827, 3519.602
437.309, 3444.820
437.791, 3449.852
438.273, 3491.406
438.755, 3538.703
439.237, 3587.891
439.719, 3632.820
440.201, 3681.172
440.683, 3719.258
441.165, 3719.891
441.648, 3682.625
442.130, 3674.008
442.612, 3762.375
443.094, 3875.852
443.576, 3957.914
444.058, 3983.930
444.540, 3986.383
445.022, 3921.266
445.505, 3828.062
445.987, 3828.672
446.469, 4070.117
446.951, 4295.172
447.433, 4392.039
447.915, 4299.039
448.397, 4261.719
448.879, 4319.203
449.362, 4411.211
449.844, 4461.438
450.326, 4454.281
450.808, 4440.625
451.290, 4422.125
451.772, 4403.727
452.254, 4420.375
452.736, 4475.523
453.218, 4550.211
453.701, 4636.734
454.183, 4732.328
454.665, 4825.281
455.147, 4915.438
455.629, 4995.086
456.111, 5036.852
456.593, 5047.477
457.075, 5081.352
457.557, 5184.523
458.040, 5321.969
458.522, 5426.859
459.004, 5500.805
459.486, 5570.023
459.968, 5670.969
460.450, 5777.547
460.932, 5847.969
461.414, 5856.898
461.897, 5852.617
462.379, 5855.695
462.861, 5870.156
463.343, 5905.273
463.825, 5990.391
464.307, 6077.812
464.789, 6147.727
465.271, 6203.258
465.754, 6221.828
466.236, 6166.258
466.718, 6086.586
467.200, 6033.281
467.682, 6056.320
468.164, 6047.742
468.646, 5972.969
469.128, 5847.844
469.610, 5782.570
470.093, 5818.930
470.575, 5846.648
471.057, 5807.789
471.539, 5692.164
472.021, 5541.961
472.503, 5333.352
472.985, 5125.266
473.467, 5039.539
473.949, 5080.516
474.432, 5046.133
474.914, 4845.219
475.396, 4532.773
475.878, 4257.133
476.360, 4018.555
476.842, 3788.852
477.324, 3541.836
477.806, 3293.305
478.289, 3081.523
478.771, 2927.883
479.253, 2775.234
479.735, 2557.703
480.217, 2305.469
480.699, 2078.359
481.181, 1903.156
481.663, 1763.258
482.146, 1645.984
482.628, 1550.219
483.110, 1479.109
483.592, 1453.641
484.074, 1437.609
484.556, 1403.453
485.038, 1320.234
485.520, 1244.812
486.002, 1165.867
486.484, 1094.391
486.967, 1061.812
487.449, 1118.852
487.931, 1137.109
488.413, 1061.828
488.895, 883.539
489.377, 758.352
489.859, 707.203
490.341, 676.867
490.824, 617.242
491.306, 528.750
491.788, 453.805
492.270, 408.195
492.752, 373.180
493.234, 302.164
493.716, 200.672
494.198, 107.375
494.681, 44.883
495.163, 4.805
495.645, 23.945
496.127, 42.414
496.609, 62.297
497.091, 96.656
497.573, 139.062
498.055, 183.312
498.537, 255.023
499.020, 293.023
499.502, 223.648
499.984, 89.422
500.466, 8.531
500.948, 79.148
501.430, 162.391
501.912, 188.641
502.394, 130.055
502.876, 104.328
503.359, 151.578
503.841, 214.344
504.323, 246.820
504.805, 254.695
505.287, 219.047
505.769, 122.875
506.251, 12.484
506.733, 123.102
507.216, 210.461
507.698, 264.992
508.180, 265.008
508.662, 214.109
509.144, 195.375
509.626, 209.453
510.108, 249.859
510.590, 340.180
511.073, 457.500
511.555, 513.227
512.037, 455.219
512.519, 369.281
513.001, 369.477
513.483, 434.578
513.965, 491.477
514.447, 462.008
514.929, 434.938
515.412, 492.023
515.894, 649.469
516.376, 802.359
516.858, 914.484
517.340, 995.453
517.822, 1053.227
518.304, 1039.055
518.786, 1057.109
519.268, 1142.117
519.751, 1269.500
520.233, 1370.609
520.715, 1424.383
521.197, 1482.734
521.679, 1573.188
522.161, 1706.211
522.643, 1797.477
523.125, 1833.297
523.607, 1837.172
524.090, 1825.719
524.572, 1801.203
525.054, 1817.336
525.536, 1899.055
526.018, 2000.312
526.500, 2017.180
526.982, 1968.625
527.464, 1952.477
527.947, 2061.805
528.429, 2218.594
528.911, 2317.852
529.393, 2350.562
529.875, 2351.031
530.357, 2312.938
530.839, 2262.797
531.321, 2227.945
531.804, 2225.078
532.286, 2219.547
532.768, 2208.938
533.250, 2187.281
533.732, 2142.742
534.214, 1963.594
534.696, 1881.961
535.178, 2012.023
535.661, 2360.188
536.143, 2525.766
536.625, 2437.500
537.107, 2281.078
537.589, 2166.672
538.071, 2094.297
538.553, 2088.047
539.035, 2176.016
539.517, 2279.836
540.000, 2241.727
540.482, 2078.414
540.964, 1973.766
541.446, 2031.414
541.928, 2163.867
542.410, 2206.820
542.892, 2170.516
543.374, 2138.852
543.856, 2174.461
544.339, 2238.617
544.821, 2297.000
545.303, 2347.984
545.785, 2371.781
546.267, 2320.422
546.749, 2249.602
547.231, 2226.227
547.713, 2335.742
548.195, 2417.633
548.678, 2429.648
549.160, 2385.477
549.642, 2345.531
550.124, 2322.945
550.606, 2288.539
551.088, 2221.867
551.570, 2114.344
552.052, 2058.039
552.534, 2067.383
553.017, 2092.797
553.499, 2096.094
553.981, 2076.695
554.463, 2006.477
554.945, 1864.391
555.427, 1696.414
555.909, 1565.688
556.391, 1469.953
556.874, 1410.914
557.356, 1438.242
557.838, 1485.625
558.320, 1471.305
558.802, 1389.516
559.284, 1299.133
559.766, 1230.570
560.248, 1178.758
560.731, 1133.039
561.213, 1077.688
561.695, 1045.070
562.177, 1076.422
562.659, 1127.328
563.141, 1130.078
563.623, 1048.281
564.105, 982.453
564.588, 944.766
565.070, 928.602
565.552, 908.797
566.034, 880.398
566.516, 861.242
566.998, 873.586
567.480, 911.625
567.962, 901.602
568.444, 834.664
568.927, 767.820
569.409, 781.242
569.891, 842.531
570.373, 871.961
570.855, 846.875
571.337, 787.141
571.819, 679.695
572.301, 550.781
572.783, 459.688
573.266, 493.234
573.748, 519.180
574.230, 451.859
574.712, 285.266
575.194, 163.398
575.676, 136.242
576.158, 143.953
576.640, 161.898
577.122, 201.516
577.605, 213.109
578.087, 194.070
578.569, 149.844
579.051, 69.938
579.533, 54.672
580.015, 115.969
580.497, 64.055
580.979, 47.375
581.461, 85.680
581.944, 57.656
582.426, 20.992
582.908, 1.930
583.390, 8.875
583.872, 15.766
584.354, 72.938
584.836, 110.969
585.318, 29.219
585.801, 55.242
586.283, 18.734
586.765, 282.148
587.247, 506.297
587.729, 513.812
588.211, 401.406
588.693, 348.719
589.175, 399.430
589.657, 451.117
590.140, 475.641
590.622, 477.367
591.104, 510.742
591.586, 594.766
592.068, 675.219
592.550, 722.367
593.032, 737.445
593.515, 720.742
593.997, 667.625
594.479, 621.750
594.961, 636.578
595.443, 692.742
595.925, 750.656
596.407, 808.773
596.889, 849.445
597.371, 851.062
597.854, 826.320
598.336, 800.859
598.818, 771.781
599.300, 756.812
599.782, 779.141
600.264, 836.508
600.746, 852.844
601.228, 798.203
601.710, 727.555
602.193, 661.938
602.675, 596.570
603.157, 554.023
603.639, 538.664
604.121, 536.117
604.603, 539.445
605.085, 547.328
605.567, 522.445
606.049, 442.289
606.532, 354.969
607.014, 357.508
607.496, 422.414
607.978, 460.148
608.460, 395.305
608.942, 305.602
609.424, 245.383
609.906, 216.344
610.388, 219.906
610.871, 284.602
611.353, 360.312
611.835, 422.383
612.317, 479.203
612.799, 488.570
613.281, 424.422
613.763, 333.930
614.245, 260.188
614.728, 207.258
615.210, 163.914
615.692, 130.438
616.174, 107.086
616.656, 94.805
617.138, 94.219
617.620, 101.367
618.102, 114.984
618.584, 136.219
619.067, 170.383
619.549, 215.695
620.031, 259.773
620.513, 302.070
620.995, 333.992
621.477, 333.453
621.959, 287.344
622.442, 279.727
622.924, 381.266
623.406, 507.711
623.888, 587.406
624.370, 585.914
624.852, 576.672
625.334, 556.523
625.816, 530.805
626.298, 514.383
626.781, 514.625
627.263, 484.781
627.745, 394.688
628.227, 277.914
628.709, 245.664
629.191, 292.203
629.673, 330.953
630.155, 304.375
630.638, 240.320
631.120, 168.562
631.602, 91.727
632.084, 31.523
632.566, 25.859
633.048, 29.656
633.530, 2.227
634.012, 115.211
634.494, 181.500
634.977, 136.508
635.459, 49.414
635.941, 3.305
636.423, 18.711
636.905, 36.812
637.387, 58.969
637.869, 79.250
638.351, 66.141
638.833, 15.336
639.316, 12.609
639.798, 26.359
640.280, 102.898
640.762, 140.555
641.244, 141.773
641.726, 137.297
642.208, 141.016
642.690, 154.578
643.172, 191.172
643.655, 262.633
644.137, 296.891
644.619, 210.805
645.101, 101.711
645.583, 50.719
646.065, 135.172
646.547, 184.750
647.029, 199.195
647.511, 175.227
647.994, 106.203
648.476, 9.438
648.958, 162.789
649.440, 368.273
