##NAMES=Enstatite
##RRUFFID=R060630
##IDEAL CHEMISTRY=MgSiO_3_
##LOCALITY=unknown
##OWNER=RRUFF
##SOURCE=Gemological Institute of America
##DESCRIPTION=Tan colored fragment
##STATUS=The identification of this mineral has been confirmed by X-ray diffraction and chemical analysis
##URL=rruff.info/R060630
##MEASURED CHEMISTRY=(Mg_0.89_Fe_0.07_Al_0.04_)_Σ=1_(Si_0.96_Al_0.04_)_Σ=1_O_3_
147.074, 0.000
147.556, 2.318
148.038, 9.758
148.521, 30.256
149.003, 25.225
149.485, 4.748
149.967, 9.605
150.449, 29.402
150.931, 156.658
151.413, 257.334
151.895, 314.980
152.378, 343.826
152.860, 382.357
153.342, 447.244
153.824, 513.096
154.306, 567.986
154.788, 628.430
155.270, 660.932
155.752, 665.121
156.234, 640.959
156.717, 586.209
157.199, 454.965
157.681, 318.877
158.163, 227.848
158.645, 221.031
159.127, 233.365
159.609, 247.900
160.091, 263.789
160.574, 286.566
161.056, 320.047
161.538, 358.951
162.020, 397.840
162.502, 416.750
162.984, 447.320
163.466, 518.582
163.948, 636.771
164.430, 729.021
164.913, 746.580
165.395, 716.326
165.877, 679.605
166.359, 650.508
166.841, 623.189
167.323, 590.037
167.805, 546.301
168.287, 515.287
168.770, 488.229
169.252, 441.506
169.734, 454.008
170.216, 452.248
170.698, 436.973
171.180, 367.514
171.662, 368.172
172.144, 340.803
172.626, 312.320
173.109, 322.977
173.591, 261.611
174.073, 271.699
174.555, 253.289
175.037, 248.137
175.519, 214.986
176.001, 190.824
176.483, 195.141
176.965, 183.859
177.448, 148.084
177.930, 115.252
178.412, 71.354
178.894, 51.016
179.376, 15.367
179.858, 14.627
180.340, 3.512
180.822, 68.484
181.305, 136.852
181.787, 153.379
182.269, 137.395
182.751, 148.396
183.233, 227.227
183.715, 340.492
184.197, 406.590
184.679, 422.738
185.161, 426.447
185.644, 449.506
186.126, 491.750
186.608, 558.162
187.090, 663.494
187.572, 794.627
188.054, 906.432
188.536, 993.986
189.018, 1077.270
189.501, 1186.051
189.983, 1316.574
190.465, 1440.814
190.947, 1528.084
191.429, 1589.463
191.911, 1690.891
192.393, 1831.992
192.875, 2017.637
193.357, 2200.701
193.840, 2372.555
194.322, 2423.961
194.804, 2475.322
195.286, 2526.615
195.768, 2577.873
196.250, 2629.055
196.732, 2680.193
197.214, 2731.271
197.697, 2782.303
198.179, 2833.277
198.661, 2855.727
199.143, 2958.768
199.625, 3016.141
200.107, 3010.119
200.589, 2959.889
201.071, 2921.889
201.553, 2904.957
202.036, 2865.174
202.518, 2766.477
203.000, 2594.008
203.482, 2442.543
203.964, 2326.338
204.446, 2241.062
204.928, 2156.580
205.410, 2072.961
205.893, 1993.344
206.375, 1923.299
206.857, 1866.857
207.339, 1815.408
207.821, 1769.539
208.303, 1726.574
208.785, 1675.266
209.267, 1614.670
209.749, 1547.307
210.232, 1470.492
210.714, 1376.938
211.196, 1309.961
211.678, 1288.932
212.160, 1305.904
212.642, 1276.492
213.124, 1181.592
213.606, 1074.281
214.089, 1007.986
214.571, 999.449
215.053, 985.973
215.535, 949.543
216.017, 892.146
216.499, 873.104
216.981, 901.729
217.463, 947.039
217.945, 975.525
218.428, 971.826
218.910, 987.279
219.392, 1039.785
219.874, 1132.070
220.356, 1200.480
220.838, 1230.316
221.320, 1249.941
221.802, 1291.188
222.285, 1359.283
222.767, 1438.234
223.249, 1528.268
223.731, 1633.744
224.213, 1719.490
224.695, 1771.098
225.177, 1818.234
225.659, 1900.430
226.141, 2027.068
226.624, 2171.990
227.106, 2328.896
227.588, 2496.551
228.070, 2680.680
228.552, 2879.908
229.034, 3095.053
229.516, 3321.986
229.998, 3552.910
230.480, 3807.793
230.963, 4090.902
231.445, 4399.809
231.927, 4740.527
232.409, 5113.998
232.891, 5513.809
233.373, 5937.178
233.855, 6383.566
234.337, 6851.727
234.820, 7351.828
235.302, 7908.090
235.784, 8424.676
236.266, 8914.291
236.748, 9357.346
237.230, 9728.887
237.712, 10072.977
238.194, 10283.785
238.676, 10327.318
239.159, 10199.506
239.641, 9919.848
240.123, 9451.592
240.605, 8852.344
241.087, 8210.693
241.569, 7468.570
242.051, 6761.125
242.533, 6138.670
243.016, 5607.916
243.498, 5129.092
243.980, 4713.287
244.462, 4343.334
244.944, 3987.334
245.426, 3635.508
245.908, 3310.174
246.390, 3021.354
246.872, 2768.568
247.355, 2546.582
247.837, 2367.910
248.319, 2213.572
248.801, 2048.773
249.283, 1861.461
249.765, 1682.098
250.247, 1520.945
250.729, 1381.701
251.212, 1254.227
251.694, 1147.346
252.176, 1049.451
252.658, 937.512
253.140, 801.654
253.622, 671.682
254.104, 557.129
254.586, 460.432
255.068, 379.332
255.551, 323.275
256.033, 279.047
256.515, 218.094
256.997, 123.707
257.479, 44.768
257.961, 1.289
258.443, 2.977
258.925, 5.629
259.408, 10.371
259.890, 14.521
260.372, 14.535
260.854, 11.113
261.336, 0.611
261.818, 29.908
262.300, 89.904
262.782, 108.113
263.264, 64.381
263.746, 2.779
264.229, 20.188
264.711, 31.396
265.193, 85.984
265.675, 118.928
266.157, 126.154
266.639, 134.402
267.121, 141.857
267.603, 152.215
268.086, 175.570
268.568, 219.941
269.050, 251.898
269.532, 255.750
270.014, 227.818
270.496, 199.879
270.978, 169.594
271.460, 142.748
271.943, 127.059
272.425, 122.006
272.907, 129.812
273.389, 160.365
273.871, 216.834
274.353, 234.357
274.835, 204.279
275.317, 150.484
275.799, 104.156
276.282, 66.787
276.764, 30.703
277.246, 9.434
277.728, 52.801
278.210, 78.191
278.692, 78.473
279.174, 73.629
279.656, 94.889
280.138, 145.562
280.621, 184.482
281.103, 186.779
281.585, 158.184
282.067, 164.631
282.549, 210.418
283.031, 277.383
283.513, 360.207
283.995, 459.400
284.478, 520.814
284.960, 512.018
285.442, 448.865
285.924, 415.133
286.406, 416.104
286.888, 422.688
287.370, 399.941
287.852, 350.443
288.335, 307.027
288.817, 279.129
289.299, 265.242
289.781, 263.977
290.263, 276.734
290.745, 290.029
291.227, 275.355
291.709, 242.080
292.191, 247.062
292.674, 323.766
293.156, 438.471
293.638, 511.127
294.120, 540.205
294.602, 561.166
295.084, 604.143
295.566, 664.584
296.048, 723.789
296.530, 773.861
297.013, 825.350
297.495, 906.941
297.977, 1017.705
298.459, 1111.998
298.941, 1160.609
299.423, 1170.240
299.905, 1153.174
300.387, 1109.047
300.870, 1045.477
301.352, 964.385
301.834, 867.869
302.316, 771.838
302.798, 668.885
303.280, 576.475
303.762, 526.881
304.244, 540.945
304.727, 570.291
305.209, 555.992
305.691, 510.334
306.173, 479.916
306.655, 511.947
307.137, 566.043
307.619, 589.775
308.101, 560.457
308.583, 537.598
309.065, 579.992
309.548, 667.293
310.030, 747.488
310.512, 794.393
310.994, 823.793
311.476, 843.965
311.958, 851.420
312.440, 870.830
312.922, 925.041
313.405, 1001.162
313.887, 1076.295
314.369, 1133.195
314.851, 1191.467
315.333, 1265.447
315.815, 1360.379
316.297, 1448.666
316.779, 1510.818
317.262, 1560.312
317.744, 1615.770
318.226, 1660.199
318.708, 1730.666
319.190, 1851.785
319.672, 2028.195
320.154, 2204.566
320.636, 2377.494
321.118, 2545.561
321.601, 2704.811
322.083, 2836.021
322.565, 2967.953
323.047, 3130.244
323.529, 3325.041
324.011, 3448.008
324.493, 3429.684
324.975, 3361.637
325.457, 3310.820
325.940, 3296.602
326.422, 3282.508
326.904, 3259.266
327.386, 3230.449
327.868, 3220.732
328.350, 3243.961
328.832, 3276.004
329.314, 3302.135
329.797, 3277.729
330.279, 3307.227
330.761, 3393.746
331.243, 3534.369
331.725, 3727.367
332.207, 4047.279
332.689, 4340.717
333.171, 4525.416
333.654, 4529.893
334.136, 4584.232
334.618, 4702.293
335.100, 4863.062
335.582, 5021.133
336.064, 5163.145
336.546, 5327.686
337.028, 5528.477
337.510, 5762.545
337.992, 6043.559
338.475, 6388.703
338.957, 6760.014
339.439, 7109.957
339.921, 7426.941
340.403, 7758.590
340.885, 8122.938
341.367, 8520.402
341.849, 8899.375
342.332, 9262.488
342.814, 9609.389
343.296, 9939.961
343.778, 10253.012
344.260, 10558.998
344.742, 10858.199
345.224, 11153.074
345.706, 11451.781
346.189, 11762.219
346.671, 12035.309
347.153, 12207.492
347.635, 12299.162
348.117, 12395.488
348.599, 12537.422
349.081, 12667.730
349.563, 12681.648
350.045, 12582.469
350.528, 12412.242
351.010, 12177.297
351.492, 11893.131
351.974, 11592.176
352.456, 11275.438
352.938, 10942.285
353.420, 10595.188
353.902, 10232.168
354.384, 9838.801
354.867, 9385.082
355.349, 8915.168
355.831, 8479.148
356.313, 8084.934
356.795, 7715.748
357.277, 7362.850
357.759, 7026.453
358.241, 6711.455
358.724, 6439.561
359.206, 6179.934
359.688, 5911.660
360.170, 5633.246
360.652, 5364.512
361.134, 5110.137
361.616, 4871.746
362.098, 4650.121
362.581, 4455.637
363.063, 4270.074
363.545, 4089.855
364.027, 3913.930
364.509, 3737.059
364.991, 3556.203
365.473, 3373.326
365.955, 3191.559
366.437, 3010.949
366.919, 2829.770
367.402, 2630.348
367.884, 2425.834
368.366, 2263.779
368.848, 2174.506
369.330, 2105.924
369.812, 2040.146
370.294, 1980.922
370.776, 1915.879
371.259, 1825.332
371.741, 1737.115
372.223, 1704.646
372.705, 1760.982
373.187, 1818.557
373.669, 1848.859
374.151, 1846.561
374.633, 1857.381
375.116, 1881.848
375.598, 1916.822
376.080, 1957.412
376.562, 2002.768
377.044, 2064.377
377.526, 2151.914
378.008, 2259.174
378.490, 2334.693
378.973, 2367.582
379.455, 2407.734
379.937, 2509.523
380.419, 2668.320
380.901, 2805.660
381.383, 2900.227
381.865, 2982.928
382.347, 3110.982
382.829, 3283.303
383.311, 3474.977
383.794, 3684.912
384.276, 3900.562
384.758, 4097.283
385.240, 4270.844
385.722, 4435.305
386.204, 4645.336
386.686, 4862.373
387.168, 4986.059
387.651, 4867.623
388.133, 4682.807
388.615, 4676.809
389.097, 4856.791
389.579, 4973.500
390.061, 4778.844
390.543, 4434.977
391.025, 4142.473
391.508, 3977.830
391.990, 3879.855
392.472, 3833.742
392.954, 3832.703
393.436, 3843.729
393.918, 3857.686
394.400, 3878.576
394.882, 3905.307
395.364, 3918.805
395.847, 3969.611
396.329, 4092.148
396.811, 4263.559
397.293, 4427.391
397.775, 4551.316
398.257, 4682.949
398.739, 4844.330
399.221, 5057.566
399.703, 5230.883
400.186, 5337.658
400.668, 5416.305
401.150, 5510.996
401.632, 5650.625
402.114, 5760.832
402.596, 5830.762
403.078, 5860.695
403.560, 5843.805
404.043, 5772.738
404.525, 5667.504
405.007, 5531.141
405.489, 5351.414
405.971, 5208.770
406.453, 5123.129
406.935, 5068.262
407.417, 4962.766
407.900, 4797.621
408.382, 4664.750
408.864, 4630.637
409.346, 4683.824
409.828, 4718.359
410.310, 4723.340
410.792, 4726.793
411.274, 4766.217
411.756, 4838.137
412.238, 4917.785
412.721, 4983.703
413.203, 5054.322
413.685, 5165.861
414.167, 5316.727
414.649, 5486.570
415.131, 5681.656
415.613, 5884.844
416.095, 6062.402
416.578, 6202.529
417.060, 6317.168
417.542, 6425.955
418.024, 6520.457
418.506, 6574.367
418.988, 6546.213
419.470, 6490.412
419.952, 6449.145
420.435, 6441.186
420.917, 6392.988
421.399, 6264.762
421.881, 6087.465
422.363, 5899.973
422.845, 5753.043
423.327, 5555.027
423.809, 5271.352
424.291, 4901.555
424.774, 4522.400
425.256, 4124.691
425.738, 3731.178
426.220, 3355.961
426.702, 3006.652
427.184, 2662.986
427.666, 2317.561
428.148, 1977.297
428.630, 1653.506
429.113, 1336.273
429.595, 1057.684
430.077, 837.602
430.559, 681.367
431.041, 547.924
431.523, 441.396
432.005, 344.252
432.487, 225.479
432.970, 84.654
433.452, 31.230
433.934, 102.367
434.416, 141.457
434.898, 185.941
435.380, 236.023
435.862, 274.559
436.344, 281.863
436.827, 267.588
437.309, 252.221
437.791, 236.164
438.273, 226.586
438.755, 237.855
439.237, 262.168
439.719, 279.131
440.201, 288.350
440.683, 279.150
441.165, 240.311
441.648, 170.588
442.130, 93.215
442.612, 1.201
443.094, 88.889
443.576, 145.787
444.058, 132.348
444.540, 120.408
445.022, 139.221
445.505, 180.336
445.987, 198.205
446.469, 160.111
446.951, 119.094
447.433, 101.158
447.915, 123.756
448.397, 133.848
448.879, 128.416
449.362, 112.758
449.844, 94.424
450.326, 73.463
450.808, 49.734
451.290, 18.389
451.772, 18.789
452.254, 26.193
452.736, 6.018
453.218, 38.723
453.701, 25.531
454.183, 33.086
454.665, 45.609
455.147, 12.240
455.629, 101.289
456.111, 149.637
456.593, 160.457
457.075, 168.176
457.557, 182.627
458.040, 208.920
458.522, 278.027
459.004, 396.127
459.486, 476.018
459.968, 407.732
460.450, 259.615
460.932, 139.457
461.414, 93.773
461.897, 74.203
462.379, 51.406
462.861, 27.891
463.343, 13.639
463.825, 19.752
464.307, 31.225
464.789, 40.486
465.271, 48.713
465.754, 48.703
466.236, 26.090
466.718, 1.357
467.200, 10.752
467.682, 28.537
468.164, 51.896
468.646, 40.053
469.128, 4.377
469.610, 27.582
470.093, 23.568
470.575, 7.648
471.057, 15.725
471.539, 52.900
472.021, 60.787
472.503, 23.123
472.985, 27.277
473.467, 18.949
473.949, 50.863
474.432, 104.553
474.914, 100.820
475.396, 57.408
475.878, 29.967
476.360, 18.797
476.842, 24.605
477.324, 67.918
477.806, 127.348
478.289, 156.072
478.771, 135.449
479.253, 100.639
479.735, 80.260
480.217, 72.205
480.699, 69.900
481.181, 73.801
481.663, 80.084
482.146, 81.770
482.628, 76.510
483.110, 87.402
483.592, 110.209
484.074, 157.625
484.556, 240.039
485.038, 433.639
485.520, 573.502
486.002, 616.789
486.484, 587.516
486.967, 560.812
487.449, 540.346
487.931, 515.461
488.413, 477.432
488.895, 419.562
489.377, 396.172
489.859, 425.129
490.341, 460.100
490.824, 441.258
491.306, 364.529
491.788, 300.584
492.270, 268.744
492.752, 258.656
493.234, 251.057
493.716, 246.121
494.198, 236.412
494.681, 214.713
495.163, 185.605
495.645, 157.965
496.127, 131.715
496.609, 103.582
497.091, 62.596
497.573, 19.111
498.055, 11.045
498.537, 17.184
499.020, 9.715
499.502, 17.051
499.984, 56.941
500.466, 84.676
500.948, 67.217
501.430, 49.195
501.912, 55.604
502.394, 100.457
502.876, 141.279
503.359, 162.309
503.841, 184.959
504.323, 234.676
504.805, 334.898
505.287, 422.225
505.769, 485.750
506.251, 527.844
506.733, 557.293
507.216, 566.488
507.698, 585.984
508.180, 633.711
508.662, 709.207
509.144, 803.484
509.626, 919.410
510.108, 1035.799
510.590, 1123.150
511.073, 1186.357
511.555, 1248.096
512.037, 1319.398
512.519, 1387.773
513.001, 1424.322
513.483, 1437.314
513.965, 1474.047
514.447, 1575.082
514.929, 1705.088
515.412, 1830.404
515.894, 1939.434
516.376, 1977.811
516.858, 2117.371
517.340, 2232.305
517.822, 2323.938
518.304, 2322.650
518.786, 2441.236
519.268, 2511.713
519.751, 2580.172
520.233, 2715.260
520.715, 2770.668
521.197, 2865.031
521.679, 2917.570
522.161, 2922.188
522.643, 2915.621
523.125, 2891.537
523.607, 2868.887
524.090, 2878.979
524.572, 2921.486
525.054, 2942.334
525.536, 2929.453
526.018, 2892.609
526.500, 2844.551
526.982, 2785.430
527.464, 2731.254
527.947, 2703.164
528.429, 2683.635
528.911, 2645.744
529.393, 2586.936
529.875, 2526.531
530.357, 2470.006
530.839, 2418.930
531.321, 2381.127
531.804, 2367.354
532.286, 2360.119
532.768, 2351.258
533.250, 2342.074
533.732, 2340.164
534.214, 2339.576
534.696, 2370.545
535.178, 2395.750
535.661, 2415.400
536.143, 2406.598
536.625, 2434.596
537.107, 2446.705
537.589, 2457.416
538.071, 2488.439
538.553, 2481.049
539.035, 2509.521
539.517, 2462.775
540.000, 2424.936
540.482, 2393.504
540.964, 2336.377
541.446, 2219.098
541.928, 2072.676
542.410, 1950.254
542.892, 1851.363
543.374, 1786.430
543.856, 1784.115
544.339, 1807.080
544.821, 1806.021
545.303, 1751.533
545.785, 1724.662
546.267, 1803.057
546.749, 1928.141
547.231, 2009.047
547.713, 1978.357
548.195, 1941.994
548.678, 1930.113
549.160, 1939.432
549.642, 1931.467
550.124, 1893.545
550.606, 1863.033
551.088, 1858.996
551.570, 1892.258
552.052, 1897.150
552.534, 1869.461
553.017, 1823.561
553.499, 1778.414
553.981, 1735.518
554.463, 1677.154
554.945, 1593.854
555.427, 1499.314
555.909, 1402.457
556.391, 1310.281
556.874, 1247.941
557.356, 1260.943
557.838, 1296.221
558.320, 1292.543
558.802, 1244.002
559.284, 1179.730
559.766, 1107.406
560.248, 1035.141
560.731, 965.006
561.213, 867.334
561.695, 814.543
562.177, 857.668
562.659, 951.322
563.141, 998.881
563.623, 964.799
564.105, 932.854
564.588, 918.734
565.070, 922.744
565.552, 947.736
566.034, 997.275
566.516, 1053.535
566.998, 1108.463
567.480, 1160.859
567.962, 1196.547
568.444, 1210.016
568.927, 1223.947
569.409, 1269.719
569.891, 1339.156
570.373, 1407.480
570.855, 1461.051
571.337, 1517.779
571.819, 1600.674
572.301, 1702.340
572.783, 1802.178
573.266, 1881.551
573.748, 1962.734
574.230, 2064.402
574.712, 2194.738
575.194, 2298.174
575.676, 2332.027
576.158, 2356.934
576.640, 2419.385
577.122, 2573.098
577.605, 2652.551
578.087, 2628.070
578.569, 2545.465
579.051, 2495.223
579.533, 2488.469
580.015, 2440.838
580.497, 2316.061
580.979, 2135.729
581.461, 1953.725
581.944, 1771.434
582.426, 1614.107
582.908, 1522.898
583.390, 1458.158
583.872, 1348.488
584.354, 1180.555
584.836, 1019.441
585.318, 908.256
585.801, 827.930
586.283, 756.455
586.765, 687.549
587.247, 626.713
587.729, 562.896
588.211, 507.219
588.693, 491.377
589.175, 557.674
589.657, 608.635
590.140, 616.803
590.622, 583.268
591.104, 543.041
591.586, 493.037
592.068, 445.396
592.550, 408.723
593.032, 382.645
593.515, 364.725
593.997, 357.062
594.479, 347.512
594.961, 317.584
595.443, 274.764
595.925, 236.562
596.407, 205.652
596.889, 185.703
597.371, 190.615
597.854, 209.936
598.336, 215.299
598.818, 189.609
599.300, 152.113
599.782, 104.770
600.264, 45.973
600.746, 5.955
601.228, 5.273
601.710, 5.701
602.193, 1.984
602.675, 16.244
603.157, 2.645
603.639, 56.543
604.121, 126.016
604.603, 158.840
605.085, 155.213
605.567, 128.383
606.049, 67.213
606.532, 4.381
607.014, 15.871
607.496, 84.152
607.978, 137.709
608.460, 124.846
608.942, 86.307
609.424, 56.998
609.906, 38.688
610.388, 17.131
610.871, 32.398
611.353, 74.691
611.835, 81.291
612.317, 16.342
612.799, 18.311
613.281, 4.785
613.763, 44.750
614.245, 48.846
614.728, 1.805
615.210, 30.033
615.692, 28.400
616.174, 9.566
616.656, 22.506
617.138, 66.625
617.620, 97.510
618.102, 79.115
618.584, 36.172
619.067, 20.088
619.549, 29.098
620.031, 40.582
620.513, 44.385
620.995, 40.580
621.477, 27.521
621.959, 2.715
622.442, 19.758
622.924, 35.426
623.406, 45.062
623.888, 49.422
624.370, 48.242
624.852, 37.566
625.334, 14.158
625.816, 16.025
626.298, 33.926
626.781, 71.293
627.263, 96.771
627.745, 74.713
628.227, 114.051
628.709, 128.771
629.191, 155.699
629.673, 173.660
630.155, 221.627
630.638, 285.230
631.120, 341.799
631.602, 388.924
632.084, 439.506
632.566, 517.914
633.048, 596.283
633.530, 646.785
634.012, 633.768
634.494, 636.939
634.977, 684.854
635.459, 753.754
635.941, 803.969
636.423, 813.758
636.905, 848.424
637.387, 931.180
637.869, 1044.924
638.351, 1128.061
638.833, 1178.260
639.316, 1210.477
639.798, 1223.756
640.280, 1225.055
640.762, 1233.998
641.244, 1250.557
641.726, 1273.904
642.208, 1310.914
642.690, 1351.316
643.172, 1379.230
643.655, 1382.641
644.137, 1410.219
644.619, 1488.125
645.101, 1599.877
645.583, 1727.420
646.065, 1896.516
646.547, 2044.938
647.029, 2154.242
647.511, 2245.605
647.994, 2360.123
648.476, 2494.725
648.958, 2662.312
649.440, 2868.131
649.922, 3105.588
650.404, 3345.553
650.886, 3586.311
651.369, 3835.680
651.851, 4109.480
652.333, 4386.045
652.815, 4619.238
653.297, 4804.947
653.779, 5025.428
654.261, 5370.930
654.743, 5748.031
655.225, 6073.244
655.708, 6301.947
656.190, 6539.996
656.672, 6790.086
657.154, 7065.363
657.636, 7398.408
658.118, 7835.949
658.600, 8202.270
659.082, 8459.312
659.565, 8643.525
660.047, 8835.936
660.529, 9036.670
661.011, 9201.934
