##NAMES=Ferricopiapite
##RRUFFID=R060721
##IDEAL CHEMISTRY=Fe^3+^_2/3_Fe^3+^_4_(SO_4_)_6_(OH)_2_&#183;20H_2_O
##LOCALITY=Alcaparrosa mine, near Cerritos Bayos, El Loa Province, Chile
##OWNER=RRUFF
##SOURCE=University of Arizona Mineral Museum
##DESCRIPTION=Yellow platy crystals associated with parabutlerite
##STATUS=The identification of this mineral has been confirmed only by single crystal X-ray diffraction.
##URL=rruff.info/R060721
103.684, 0.000
104.166, 47.438
104.648, 97.333
105.130, 129.891
105.612, 151.029
106.094, 179.624
106.576, 241.187
107.059, 229.360
107.541, 158.502
108.023, 96.530
108.505, 46.814
108.987, 1.782
109.469, 22.812
109.951, 21.168
110.433, 4.329
110.915, 32.913
111.398, 63.836
111.880, 96.202
112.362, 130.022
112.844, 163.876
113.326, 200.400
113.808, 239.707
114.290, 283.021
114.772, 328.936
115.255, 382.738
115.737, 437.890
116.219, 485.901
116.701, 513.823
117.183, 541.550
117.665, 580.028
118.147, 636.018
118.629, 707.800
119.112, 794.546
119.594, 882.718
120.076, 950.825
120.558, 971.849
121.040, 971.682
121.522, 974.278
122.004, 991.819
122.486, 1005.003
122.968, 1001.920
123.451, 982.015
123.933, 943.993
124.415, 862.757
124.897, 764.275
125.379, 672.469
125.861, 612.519
126.343, 545.705
126.825, 472.429
127.307, 371.256
127.790, 307.682
128.272, 233.412
128.754, 160.853
129.236, 107.501
129.718, 65.541
130.200, 33.552
130.682, 9.569
131.164, 5.070
131.646, 17.022
132.129, 43.296
132.611, 83.546
133.093, 109.968
133.575, 110.740
134.057, 85.876
134.539, 64.395
135.021, 24.826
135.503, 10.545
135.986, 41.983
136.468, 57.257
136.950, 94.042
137.432, 122.620
137.914, 151.163
138.396, 191.883
138.878, 219.023
139.360, 255.349
139.842, 277.987
140.325, 282.926
140.807, 280.328
141.289, 277.980
141.771, 275.932
142.253, 275.908
142.735, 275.328
143.217, 272.673
143.699, 287.689
144.182, 327.689
144.664, 381.313
145.146, 432.636
145.628, 480.930
146.110, 527.489
146.592, 570.174
147.074, 603.813
147.556, 646.328
148.038, 694.296
148.521, 751.912
149.003, 828.022
149.485, 941.075
149.967, 1058.505
150.449, 1167.406
150.931, 1267.282
151.413, 1360.885
151.895, 1437.600
152.378, 1504.951
152.860, 1592.715
153.342, 1728.051
153.824, 1868.804
154.306, 1993.307
154.788, 2091.515
155.270, 2174.186
155.752, 2239.422
156.234, 2287.027
156.717, 2332.018
157.199, 2388.419
157.681, 2443.808
158.163, 2485.827
158.645, 2492.898
159.127, 2503.227
159.609, 2467.946
160.091, 2487.294
160.574, 2493.935
161.056, 2488.583
161.538, 2422.062
162.020, 2419.587
162.502, 2391.229
162.984, 2375.431
163.466, 2322.269
163.948, 2273.764
164.430, 2222.890
164.913, 2163.111
165.395, 2098.680
165.877, 2037.119
166.359, 1984.701
166.841, 1934.408
167.323, 1883.148
167.805, 1823.001
168.287, 1780.221
168.770, 1734.995
169.252, 1686.705
169.734, 1624.847
170.216, 1581.501
170.698, 1531.335
171.180, 1485.178
171.662, 1448.202
172.144, 1403.626
172.626, 1353.467
173.109, 1299.270
173.591, 1249.219
174.073, 1218.082
174.555, 1192.731
175.037, 1151.951
175.519, 1077.186
176.001, 994.729
176.483, 935.373
176.965, 898.244
177.448, 873.339
177.930, 846.405
178.412, 824.967
178.894, 826.767
179.376, 875.657
179.858, 944.171
180.340, 981.152
180.822, 984.092
181.305, 987.334
181.787, 1023.203
182.269, 1087.334
182.751, 1163.704
183.233, 1241.081
183.715, 1325.792
184.197, 1437.079
184.679, 1580.818
185.161, 1727.559
185.644, 1841.026
186.126, 1922.764
186.608, 2003.887
187.090, 2097.353
187.572, 2200.617
188.054, 2308.022
188.536, 2418.564
189.018, 2531.311
189.501, 2644.941
189.983, 2757.186
190.465, 2864.823
190.947, 2966.476
191.429, 3063.068
191.911, 3153.991
192.393, 3247.132
192.875, 3321.883
193.357, 3334.513
193.840, 3281.878
194.322, 3195.837
194.804, 3096.553
195.286, 2983.892
195.768, 2836.485
196.250, 2644.563
196.732, 2424.025
197.214, 2210.899
197.697, 2005.987
198.179, 1807.067
198.661, 1612.939
199.143, 1424.164
199.625, 1230.417
200.107, 1023.041
200.589, 810.436
201.071, 621.667
201.553, 457.017
202.036, 314.014
202.518, 191.257
203.000, 89.985
203.482, 1.843
203.964, 89.977
204.446, 171.620
204.928, 224.256
205.410, 243.385
205.893, 244.711
206.375, 242.646
206.857, 238.217
207.339, 227.541
207.821, 212.607
208.303, 192.759
208.785, 150.355
209.267, 77.938
209.749, 5.106
210.232, 74.619
210.714, 123.173
211.196, 186.766
211.678, 280.328
212.160, 406.109
212.642, 514.360
213.124, 597.212
213.606, 675.708
214.089, 779.292
214.571, 923.863
215.053, 1054.656
215.535, 1153.226
216.017, 1215.251
216.499, 1288.566
216.981, 1382.435
217.463, 1478.610
217.945, 1551.667
218.428, 1596.953
218.910, 1624.606
219.392, 1635.774
219.874, 1628.968
220.356, 1609.785
220.838, 1569.505
221.320, 1522.940
221.802, 1498.982
222.285, 1513.553
222.767, 1519.855
223.249, 1501.451
223.731, 1453.660
224.213, 1396.987
224.695, 1320.227
225.177, 1241.399
225.659, 1192.935
226.141, 1181.237
226.624, 1190.631
227.106, 1217.617
227.588, 1266.967
228.070, 1318.864
228.552, 1369.450
229.034, 1423.840
229.516, 1492.440
229.998, 1578.176
230.480, 1672.809
230.963, 1770.816
231.445, 1862.545
231.927, 1982.443
232.409, 2145.149
232.891, 2330.148
233.373, 2488.900
233.855, 2602.850
234.337, 2716.047
234.820, 2847.145
235.302, 3002.332
235.784, 3166.220
236.266, 3346.046
236.748, 3533.179
237.230, 3702.011
237.712, 3843.112
238.194, 3982.568
238.676, 4131.951
239.159, 4299.511
239.641, 4461.344
240.123, 4616.366
240.605, 4765.759
241.087, 4914.129
241.569, 5073.698
242.051, 5218.551
242.533, 5333.683
243.016, 5408.114
243.498, 5479.066
243.980, 5553.366
244.462, 5624.195
244.944, 5666.363
245.426, 5661.130
245.908, 5651.952
246.390, 5664.422
246.872, 5722.064
247.355, 5746.997
247.837, 5728.327
248.319, 5674.893
248.801, 5614.121
249.283, 5530.619
249.765, 5461.023
250.247, 5426.929
250.729, 5446.197
251.212, 5461.962
251.694, 5475.476
252.176, 5484.129
252.658, 5473.940
253.140, 5426.627
253.622, 5389.667
254.104, 5388.318
254.586, 5431.043
255.068, 5491.614
255.551, 5572.733
256.033, 5670.828
256.515, 5770.735
256.997, 5866.735
257.479, 5974.767
257.961, 6104.282
258.443, 6259.263
258.925, 6427.272
259.408, 6609.538
259.890, 6804.479
260.372, 7013.768
260.854, 7241.551
261.336, 7475.623
261.818, 7714.484
262.300, 7963.272
262.782, 8192.365
263.264, 8391.887
263.746, 8574.174
264.229, 8777.780
264.711, 9023.720
265.193, 9249.555
265.675, 9423.370
266.157, 9538.036
266.639, 9622.240
267.121, 9676.710
267.603, 9702.184
268.086, 9701.292
268.568, 9676.239
269.050, 9620.620
269.532, 9531.562
270.014, 9409.553
270.496, 9255.234
270.978, 9069.390
271.460, 8855.861
271.943, 8613.636
272.425, 8334.316
272.907, 8061.199
273.389, 7825.646
273.871, 7641.006
274.353, 7406.498
274.835, 7097.476
275.317, 6756.121
275.799, 6478.616
276.282, 6278.433
276.764, 6097.656
277.246, 5906.855
277.728, 5706.045
278.210, 5512.789
278.692, 5328.016
279.174, 5153.577
279.656, 4994.081
280.138, 4849.147
280.621, 4724.799
281.103, 4625.277
281.585, 4549.893
282.067, 4489.940
282.549, 4449.005
283.031, 4418.263
283.513, 4371.609
283.995, 4306.322
284.478, 4267.328
284.960, 4283.220
285.442, 4350.319
285.924, 4427.403
286.406, 4514.674
286.888, 4608.591
287.370, 4701.534
287.852, 4793.439
288.335, 4896.607
288.817, 5017.991
289.299, 5155.783
289.781, 5306.906
290.263, 5474.459
290.745, 5646.537
291.227, 5797.701
291.709, 5932.545
292.191, 6083.687
292.674, 6279.932
293.156, 6503.582
293.638, 6701.063
294.120, 6870.083
294.602, 7023.120
295.084, 7170.066
295.566, 7311.972
296.048, 7447.301
296.530, 7573.797
297.013, 7694.893
297.495, 7822.405
297.977, 7959.186
298.459, 8081.761
298.941, 8167.457
299.423, 8223.013
299.905, 8266.303
300.387, 8314.973
300.870, 8349.960
301.352, 8341.068
301.834, 8288.146
302.316, 8208.755
302.798, 8119.057
303.280, 8013.081
303.762, 7876.624
304.244, 7694.994
304.727, 7488.392
305.209, 7285.920
305.691, 7085.925
306.173, 6862.873
306.655, 6580.874
307.137, 6272.758
307.619, 5991.360
308.101, 5770.302
308.583, 5561.449
309.065, 5331.100
309.548, 5080.458
310.030, 4826.856
310.512, 4578.209
310.994, 4333.129
311.476, 4089.225
311.958, 3840.848
312.440, 3602.123
312.922, 3382.431
313.405, 3178.859
313.887, 2976.717
314.369, 2749.498
314.851, 2532.170
315.333, 2354.570
315.815, 2241.334
316.297, 2131.677
316.779, 1996.580
317.262, 1846.517
317.744, 1702.454
318.226, 1574.111
318.708, 1454.557
319.190, 1337.343
319.672, 1217.767
320.154, 1110.498
320.636, 1025.108
321.118, 954.240
321.601, 884.846
322.083, 812.345
322.565, 741.543
323.047, 676.693
323.529, 620.403
324.011, 559.302
324.493, 478.348
324.975, 395.059
325.457, 332.136
325.940, 311.445
326.422, 292.293
326.904, 263.694
327.386, 221.657
327.868, 187.284
328.350, 170.846
328.832, 156.687
329.314, 129.975
329.797, 79.740
330.279, 29.481
330.761, 21.671
331.243, 74.677
331.725, 100.572
332.207, 81.330
332.689, 51.479
333.171, 37.359
333.654, 43.039
334.136, 57.392
334.618, 83.943
335.100, 119.119
335.582, 140.223
336.064, 141.304
336.546, 137.566
337.028, 140.121
337.510, 152.670
337.992, 155.907
338.475, 144.330
338.957, 124.438
339.439, 116.476
339.921, 123.072
340.403, 132.132
340.885, 135.814
341.367, 133.767
341.849, 136.583
342.332, 146.130
342.814, 159.099
343.296, 171.316
343.778, 182.849
344.260, 189.599
344.742, 187.406
345.224, 177.560
345.706, 167.108
346.189, 155.110
346.671, 146.507
347.153, 150.360
347.635, 164.936
348.117, 177.656
348.599, 188.183
349.081, 192.452
349.563, 175.468
350.045, 136.497
350.528, 94.954
351.010, 66.557
351.492, 49.644
351.974, 40.482
352.456, 42.442
352.938, 47.936
353.420, 46.754
353.902, 39.653
354.384, 32.500
354.867, 29.720
355.349, 29.159
355.831, 28.475
356.313, 29.132
356.795, 25.998
357.277, 11.210
357.759, 11.635
358.241, 31.110
358.724, 40.286
359.206, 44.239
359.688, 45.740
360.170, 43.252
360.652, 44.169
361.134, 54.780
361.616, 70.890
362.098, 84.998
362.581, 88.820
363.063, 94.564
363.545, 109.240
364.027, 135.333
364.509, 159.541
364.991, 176.827
365.473, 191.160
365.955, 206.905
366.437, 235.132
366.919, 254.362
367.402, 254.069
367.884, 232.822
368.366, 223.608
368.848, 229.566
369.330, 247.177
369.812, 275.310
370.294, 335.197
370.776, 375.261
371.259, 380.549
371.741, 359.992
372.223, 361.743
372.705, 399.041
373.187, 440.909
373.669, 471.727
374.151, 488.983
374.633, 501.292
375.116, 506.163
375.598, 508.045
376.080, 516.431
376.562, 531.892
377.044, 551.752
377.526, 577.567
378.008, 609.969
378.490, 631.516
378.973, 640.014
379.455, 643.357
379.937, 648.938
380.419, 656.817
380.901, 673.532
381.383, 704.996
381.865, 746.288
382.347, 779.128
382.829, 803.214
383.311, 826.599
383.794, 859.101
384.276, 897.217
384.758, 930.228
385.240, 953.373
385.722, 972.711
386.204, 995.192
386.686, 1020.769
387.168, 1050.726
387.651, 1094.894
388.133, 1139.510
388.615, 1163.233
389.097, 1156.760
389.579, 1149.793
390.061, 1171.316
390.543, 1211.537
391.025, 1250.036
391.508, 1272.562
391.990, 1291.199
392.472, 1315.633
392.954, 1347.345
393.436, 1371.496
393.918, 1376.385
394.400, 1374.153
394.882, 1377.301
395.364, 1395.925
395.847, 1413.116
396.329, 1422.154
396.811, 1424.743
397.293, 1435.062
397.775, 1468.521
398.257, 1500.181
398.739, 1515.761
399.221, 1495.911
399.703, 1483.891
400.186, 1486.645
400.668, 1496.514
401.150, 1492.482
401.632, 1457.204
402.114, 1431.236
402.596, 1433.692
403.078, 1475.747
403.560, 1501.318
404.043, 1504.148
404.525, 1497.351
405.007, 1497.520
405.489, 1504.726
405.971, 1516.757
406.453, 1538.682
406.935, 1566.749
407.417, 1569.711
407.900, 1543.650
408.382, 1517.075
408.864, 1511.871
409.346, 1526.811
409.828, 1554.531
410.310, 1598.241
410.792, 1646.173
411.274, 1677.149
411.756, 1692.627
412.238, 1706.780
412.721, 1726.797
413.203, 1751.226
413.685, 1780.106
414.167, 1814.216
414.649, 1846.523
415.131, 1867.036
415.613, 1882.386
416.095, 1904.288
416.578, 1940.261
417.060, 1982.390
417.542, 2027.923
418.024, 2075.900
418.506, 2119.560
418.988, 2154.918
419.470, 2185.051
419.952, 2211.136
420.435, 2222.446
420.917, 2243.140
421.399, 2289.789
421.881, 2354.219
422.363, 2410.431
422.845, 2444.843
423.327, 2475.843
423.809, 2512.907
424.291, 2565.473
424.774, 2602.795
425.256, 2600.381
425.738, 2590.273
426.220, 2616.562
426.702, 2714.265
427.184, 2796.018
427.666, 2838.381
428.148, 2842.355
428.630, 2861.205
429.113, 2892.599
429.595, 2940.661
430.077, 3013.667
430.559, 3116.417
431.041, 3212.550
431.523, 3294.303
432.005, 3371.200
432.487, 3471.714
432.970, 3597.469
433.452, 3721.522
433.934, 3821.331
434.416, 3904.721
434.898, 4010.925
435.380, 4142.920
435.862, 4294.346
436.344, 4426.956
436.827, 4568.084
437.309, 4808.548
437.791, 5297.931
438.273, 5817.079
438.755, 6074.649
439.237, 6098.303
439.719, 6093.214
440.201, 6163.961
440.683, 6289.425
441.165, 6452.168
441.648, 6661.630
442.130, 6880.980
442.612, 7093.875
443.094, 7302.751
443.576, 7510.649
444.058, 7729.461
444.540, 7937.769
445.022, 8125.205
445.505, 8290.545
445.987, 8446.304
446.469, 8601.123
446.951, 8746.339
447.433, 8875.738
447.915, 9005.234
448.397, 9095.481
448.879, 9131.158
449.362, 9122.548
449.844, 9119.537
450.326, 9132.821
450.808, 9133.686
451.290, 9105.812
451.772, 9044.028
452.254, 8978.998
452.736, 8913.289
453.218, 8840.994
453.701, 8750.027
454.183, 8640.979
454.665, 8530.394
455.147, 8424.015
455.629, 8321.056
456.111, 8215.885
456.593, 8109.030
457.075, 8015.851
457.557, 7946.651
458.040, 7901.952
458.522, 7886.911
459.004, 7910.029
459.486, 7944.367
459.968, 7950.158
460.450, 7943.871
460.932, 7967.317
461.414, 8050.475
461.897, 8165.723
462.379, 8295.355
462.861, 8440.025
463.343, 8595.482
463.825, 8751.494
464.307, 8921.874
464.789, 9118.344
465.271, 9386.393
465.754, 9640.881
466.236, 9840.856
466.718, 10005.492
467.200, 10224.512
467.682, 10555.799
468.164, 10894.769
468.646, 11202.804
469.128, 11471.417
469.610, 11737.287
470.093, 11995.214
470.575, 12252.445
471.057, 12519.255
471.539, 12801.704
472.021, 13069.299
472.503, 13316.841
472.985, 13544.235
473.467, 13759.931
473.949, 13962.511
474.432, 14146.161
474.914, 14300.347
475.396, 14430.437
475.878, 14568.432
476.360, 14725.229
476.842, 14861.946
477.324, 14918.338
477.806, 14912.624
478.289, 14896.058
478.771, 14905.192
479.253, 14906.837
479.735, 14876.368
480.217, 14812.399
480.699, 14698.677
481.181, 14497.361
481.663, 14257.187
482.146, 14019.209
482.628, 13810.356
483.110, 13571.298
483.592, 13294.646
484.074, 12970.712
484.556, 12586.330
485.038, 12065.399
485.520, 11549.847
486.002, 11085.750
486.484, 10683.527
486.967, 10251.723
487.449, 9769.624
487.931, 9275.987
488.413, 8804.928
488.895, 8357.985
489.377, 7919.877
489.859, 7499.167
490.341, 7089.484
490.824, 6677.287
491.306, 6263.086
491.788, 5871.802
492.270, 5524.523
492.752, 5214.545
493.234, 4910.500
493.716, 4617.002
494.198, 4335.864
494.681, 4074.690
495.163, 3830.028
495.645, 3600.647
496.127, 3382.396
496.609, 3179.879
497.091, 3006.021
497.573, 2852.971
498.055, 2695.023
498.537, 2502.739
499.020, 2315.016
499.502, 2159.079
499.984, 2041.676
500.466, 1931.452
500.948, 1820.555
501.430, 1712.125
501.912, 1606.320
502.394, 1495.752
502.876, 1398.561
503.359, 1329.472
503.841, 1276.506
504.323, 1195.379
504.805, 1054.492
505.287, 929.525
505.769, 854.809
506.251, 839.420
506.733, 798.287
507.216, 721.672
507.698, 638.045
508.180, 581.761
508.662, 552.917
509.144, 517.050
509.626, 464.638
510.108, 404.155
510.590, 352.616
511.073, 309.594
511.555, 271.356
512.037, 236.578
512.519, 205.213
513.001, 177.762
513.483, 154.033
513.965, 132.345
514.447, 111.800
514.929, 92.538
515.412, 74.450
515.894, 56.604
516.376, 39.256
516.858, 25.784
517.340, 14.561
517.822, 1.186
518.304, 33.831
518.786, 62.733
519.268, 76.709
519.751, 69.430
520.233, 77.099
520.715, 113.704
521.197, 152.151
521.679, 164.886
522.161, 139.229
522.643, 130.850
523.125, 153.316
523.607, 191.667
524.090, 205.024
524.572, 191.329
525.054, 180.455
525.536, 194.792
526.018, 224.258
526.500, 229.376
526.982, 209.284
527.464, 185.595
527.947, 177.940
528.429, 180.263
528.911, 183.091
529.393, 185.924
529.875, 185.053
530.357, 177.534
530.839, 164.224
531.321, 147.064
531.804, 121.564
532.286, 96.771
532.768, 79.077
533.250, 69.167
533.732, 54.432
534.214, 35.835
534.696, 9.573
535.178, 28.198
535.661, 91.587
536.143, 139.437
536.625, 164.614
537.107, 178.244
537.589, 200.197
538.071, 231.167
538.553, 267.622
539.035, 311.107
539.517, 359.273
540.000, 400.021
540.482, 432.942
540.964, 467.576
541.446, 494.507
541.928, 530.082
542.410, 555.142
542.892, 606.619
543.374, 651.689
543.856, 690.697
544.339, 705.486
544.821, 751.563
545.303, 785.107
545.785, 818.142
546.267, 861.735
546.749, 889.171
547.231, 925.358
547.713, 919.987
548.195, 950.722
548.678, 972.697
549.160, 986.382
549.642, 966.936
550.124, 990.276
550.606, 1000.425
551.088, 1007.466
551.570, 1024.543
552.052, 1035.307
552.534, 1036.098
553.017, 1029.875
553.499, 1023.699
553.981, 1017.644
554.463, 1012.068
554.945, 1014.435
555.427, 1016.869
555.909, 992.416
556.391, 940.500
556.874, 886.404
557.356, 850.108
557.838, 825.230
558.320, 803.811
558.802, 787.458
559.284, 767.470
559.766, 739.847
560.248, 705.297
560.731, 665.001
561.213, 610.909
561.695, 560.066
562.177, 519.133
562.659, 488.162
563.141, 456.851
563.623, 425.560
564.105, 392.826
564.588, 357.391
565.070, 317.536
565.552, 279.536
566.034, 243.046
566.516, 209.607
566.998, 180.785
567.480, 156.756
567.962, 139.892
568.444, 133.945
568.927, 131.725
569.409, 118.529
569.891, 96.286
570.373, 75.974
570.855, 63.189
571.337, 55.950
571.819, 50.550
572.301, 46.759
572.783, 50.456
573.266, 76.850
573.748, 105.743
574.230, 118.697
574.712, 96.135
575.194, 80.272
575.676, 75.007
576.158, 80.741
576.640, 100.196
577.122, 143.145
577.605, 184.431
578.087, 215.372
578.569, 236.738
579.051, 264.409
579.533, 299.885
580.015, 342.080
580.497, 388.255
580.979, 437.137
581.461, 487.316
581.944, 540.213
582.426, 596.453
582.908, 656.721
583.390, 718.057
583.872, 778.345
584.354, 838.357
584.836, 900.292
585.318, 958.938
585.801, 1018.604
586.283, 1092.677
586.765, 1194.174
587.247, 1303.197
587.729, 1413.955
588.211, 1526.484
588.693, 1639.711
589.175, 1764.663
589.657, 1880.355
590.140, 1970.950
590.622, 2023.227
591.104, 2089.667
591.586, 2172.490
592.068, 2268.590
592.550, 2379.859
593.032, 2506.372
593.515, 2619.954
593.997, 2710.048
594.479, 2789.152
594.961, 2886.820
595.443, 2996.325
595.925, 3084.681
596.407, 3118.908
596.889, 3131.664
597.371, 3159.891
597.854, 3205.473
598.336, 3229.910
598.818, 3212.405
599.300, 3168.094
599.782, 3106.809
600.264, 3017.348
600.746, 2932.189
601.228, 2860.367
601.710, 2789.731
602.193, 2704.354
602.675, 2599.715
603.157, 2487.205
603.639, 2362.917
604.121, 2235.022
604.603, 2134.141
605.085, 2061.860
605.567, 2004.666
606.049, 1963.152
606.532, 1930.410
607.014, 1882.000
607.496, 1817.126
607.978, 1771.331
608.460, 1792.900
608.942, 1842.079
609.424, 1870.627
609.906, 1860.892
610.388, 1847.485
610.871, 1839.312
611.353, 1838.475
611.835, 1777.768
