##NAMES=Ferroalluaudite
##RRUFFID=R100070
##IDEAL CHEMISTRY=NaFe^2+^Fe^3+^_2_(PO_4_)_3_
##LOCALITY=Rapid Creek area, Yukon, Canada
##OWNER=RRUFF
##SOURCE=Royal Ontario Museum
##DESCRIPTION=Black radiating fibrous masses associated with marićite
##STATUS=The identification of this mineral is confirmed by single-crystal X-ray diffraction and chemical analysis.
##URL=rruff.info/R100070
##MEASURED CHEMISTRY=(Na_0.90_Ca_0.15_)(Fe^2+^_0.47_Mg_0.34_Mn^2+^_0.17_)_Σ=0.98_Fe^3+^_2.00_P_2.96_O_12_
178.2374, 0.0000000E+00
178.7195, 6.4099999E-04
179.2017, 1.831726
179.6838, 5.713226
180.1659, 9.068085
180.6480, 7.206879
181.1301, 2.613739
181.6122, 0.3438420
182.0944, 0.3706970
182.5765, 2.792145
183.0586, 3.285431
183.5407, 1.869751
184.0228, 0.7084660
184.5049, 2.202759
184.9871, 5.700928
185.4692, 8.798157
185.9513, 10.52530
186.4334, 11.44922
186.9155, 13.19961
187.3976, 15.86917
187.8798, 18.21667
188.3619, 19.13544
188.8440, 18.67670
189.3261, 17.02249
189.8082, 13.16458
190.2903, 8.196320
190.7725, 6.502716
191.2546, 8.559387
191.7367, 11.22537
192.2188, 10.00015
192.7009, 5.138214
193.1830, 1.801605
193.6652, 2.414215
194.1473, 6.361328
194.6294, 10.41797
195.1115, 15.04504
195.5936, 18.31021
196.0757, 16.18161
196.5579, 8.391876
197.0400, 2.578308
197.5221, 2.708679
198.0042, 8.380127
198.4863, 12.27805
198.9684, 14.13126
199.4506, 14.94522
199.9327, 16.29730
200.4148, 18.34607
200.8969, 19.71869
201.3790, 19.58237
201.8611, 18.41348
202.3433, 18.05856
202.8254, 18.54126
203.3075, 19.22900
203.7896, 17.46292
204.2717, 12.53757
204.7538, 9.942810
205.2360, 12.33447
205.7181, 21.15643
206.2002, 25.02176
206.6823, 22.33020
207.1644, 16.62930
207.6465, 14.90976
208.1287, 18.40820
208.6108, 21.65793
209.0929, 21.62482
209.5750, 17.30469
210.0571, 15.61884
210.5392, 17.56137
211.0214, 21.25519
211.5035, 22.80035
211.9856, 21.62070
212.4677, 19.66406
212.9498, 17.62082
213.4319, 15.79385
213.9140, 14.56311
214.3962, 14.96027
214.8783, 16.10172
215.3604, 15.86594
215.8425, 13.93359
216.3246, 11.32956
216.8067, 7.974884
217.2889, 2.868683
217.7710, 0.7636410
218.2531, 2.834442
218.7352, 7.366547
219.2173, 10.42914
219.6994, 11.97217
220.1816, 12.13358
220.6637, 10.62048
221.1458, 6.357269
221.6279, 3.533234
222.1100, 2.451019
222.5921, 2.728912
223.0743, 3.634521
223.5564, 6.084076
224.0385, 7.555817
224.5206, 6.396149
225.0027, 0.6586000
225.4848, 2.445557
225.9670, 2.064178
226.4491, 0.7842710
226.9312, 3.732269
227.4133, 7.486694
227.8954, 10.16360
228.3775, 10.69128
228.8597, 8.180115
229.3418, 5.615082
229.8239, 2.624847
230.3060, 0.3187260
230.7881, 1.763489
231.2702, 1.254425
231.7524, 4.6204001E-02
232.2345, 1.685822
232.7166, 4.058228
233.1987, 6.064392
233.6808, 7.910095
234.1629, 9.403503
234.6451, 9.901398
235.1272, 8.696381
235.6093, 7.558685
236.0914, 7.513794
236.5735, 9.738983
237.0556, 10.09399
237.5378, 7.347595
238.0199, 3.111420
238.5020, 1.724091
238.9841, 4.868988
239.4662, 7.998474
239.9483, 9.047150
240.4305, 6.356049
240.9126, 5.559784
241.3947, 7.731140
241.8768, 11.48032
242.3589, 13.42508
242.8410, 12.83847
243.3232, 11.08655
243.8053, 8.470459
244.2874, 3.849121
244.7695, 1.267487
245.2516, 1.369598
245.7337, 3.154816
246.2159, 4.701263
246.6980, 6.603607
247.1801, 7.353729
247.6622, 5.724213
248.1443, 0.5855100
248.6264, 2.398026
249.1086, 2.324493
249.5907, 10.40166
250.0728, 15.16328
250.5549, 14.79862
251.0370, 14.19324
251.5191, 15.55624
252.0013, 20.43056
252.4834, 22.78995
252.9655, 20.63338
253.4476, 16.43916
253.9297, 15.42650
254.4118, 18.99292
254.8940, 23.27005
255.3761, 27.21405
255.8582, 31.16556
256.3403, 33.29625
256.8224, 32.91393
257.3046, 31.32391
257.7867, 30.63757
258.2688, 31.13704
258.7509, 32.05243
259.2330, 33.35989
259.7151, 35.14523
260.1973, 35.29785
260.6794, 33.03510
261.1615, 29.96805
261.6436, 28.43353
262.1257, 28.74162
262.6078, 29.87323
263.0900, 32.10574
263.5721, 35.83710
264.0542, 36.60355
264.5363, 33.20721
265.0184, 28.27985
265.5005, 25.08241
265.9827, 24.06754
266.4648, 23.55057
266.9469, 23.18161
267.4290, 22.96831
267.9111, 22.55368
268.3932, 21.39558
268.8754, 20.65030
269.3575, 22.01862
269.8396, 26.67467
270.3217, 30.42921
270.8038, 32.02791
271.2859, 31.86761
271.7681, 29.05974
272.2502, 22.61964
272.7323, 15.58238
273.2144, 11.17645
273.6965, 9.671021
274.1786, 9.200546
274.6608, 9.570374
275.1429, 10.67586
275.6250, 12.01476
276.1071, 13.91452
276.5892, 15.23273
277.0714, 14.22508
277.5535, 10.44141
278.0356, 8.586960
278.5177, 10.14038
278.9998, 14.13068
279.4819, 16.77829
279.9641, 18.13000
280.4462, 18.05128
280.9283, 15.36269
281.4104, 9.924896
281.8925, 7.352905
282.3746, 9.616684
282.8568, 14.42021
283.3389, 14.42142
283.8210, 9.206436
284.3031, 4.236084
284.7852, 4.083633
285.2673, 8.358536
285.7495, 9.976532
286.2316, 7.193771
286.7137, 2.600235
287.1958, 1.955536
287.6779, 5.362656
288.1600, 9.143188
288.6422, 11.16644
289.1243, 11.70821
289.6064, 11.81566
290.0885, 11.48853
290.5706, 10.79996
291.0527, 9.614487
291.5349, 7.990051
292.0170, 6.769638
292.4991, 6.644043
292.9812, 7.340683
293.4633, 8.123199
293.9454, 9.129181
294.4276, 9.517181
294.9097, 7.224075
295.3918, 2.873062
295.8739, 0.1979680
296.3560, 0.5337370
296.8381, 3.642731
297.3203, 6.045624
297.8024, 7.722534
298.2845, 8.236633
298.7666, 5.922028
299.2487, 1.829651
299.7308, 0.8688510
300.2130, 0.4826200
300.6951, 3.522781
301.1772, 4.157715
301.6593, 2.399216
302.1414, 0.3351900
302.6235, 0.3446660
303.1057, 1.4252000E-02
303.5878, 0.7529910
304.0699, 2.175415
304.5520, 3.433548
305.0341, 3.126923
305.5162, 1.457596
305.9984, 1.1902000E-02
306.4805, 0.3826450
306.9626, 1.940948
307.4447, 3.286362
307.9268, 4.580475
308.4089, 4.872849
308.8911, 2.002808
309.3732, 3.078491
309.8553, 6.449173
310.3374, 4.066330
310.8195, 0.3609920
311.3016, 3.049255
311.7838, 2.665863
312.2659, 1.594696
312.7480, 0.3466190
313.2301, 0.4938200
313.7122, 0.4746090
314.1943, 7.808517
314.6765, 14.70509
315.1586, 15.36899
315.6407, 7.014664
316.1228, 0.5588380
316.6049, 1.773514
317.0870, 0.7644200
317.5692, 2.770920
318.0513, 1.626068
318.5334, 0.4738160
319.0155, 1.250717
319.4976, 4.500809
319.9797, 6.832092
320.4619, 6.070007
320.9440, 4.166855
321.4261, 3.318237
321.9082, 5.018356
322.3903, 6.898010
322.8724, 8.747787
323.3546, 10.56473
323.8367, 10.70795
324.3188, 6.809189
324.8009, 2.234512
325.2830, 0.4037020
325.7651, 2.011230
326.2473, 3.247238
326.7294, 0.7807920
327.2115, 4.562790
327.6936, 6.241638
328.1757, 0.7079320
328.6578, 8.073502
329.1400, 11.76332
329.6221, 7.518448
330.1042, 5.302505
330.5863, 5.753403
331.0684, 8.294128
331.5505, 11.35860
332.0327, 16.68211
332.5148, 20.50890
332.9969, 21.02307
333.4790, 16.56358
333.9611, 13.37628
334.4432, 11.98798
334.9254, 11.56013
335.4075, 10.63217
335.8896, 8.777939
336.3717, 7.236877
336.8538, 6.128845
337.3359, 5.308594
337.8180, 6.775909
338.3001, 11.48106
338.7823, 17.01735
339.2644, 20.65297
339.7465, 22.20438
340.2286, 22.63316
340.7107, 21.46573
341.1928, 19.21040
341.6750, 20.33170
342.1571, 25.91661
342.6392, 30.84355
343.1213, 29.35545
343.6034, 21.30524
344.0855, 17.05931
344.5677, 19.29245
345.0498, 25.29442
345.5319, 28.62338
346.0140, 29.19870
346.4961, 28.70753
346.9782, 28.01825
347.4604, 27.13483
347.9425, 25.79710
348.4246, 23.63243
348.9067, 22.03716
349.3888, 23.96893
349.8709, 28.73912
350.3531, 32.50888
350.8352, 32.74699
351.3173, 30.81026
351.7994, 29.06822
352.2815, 27.58376
352.7636, 26.57661
353.2458, 26.26987
353.7279, 26.50793
354.2100, 27.26526
354.6921, 29.21022
355.1742, 31.11787
355.6563, 31.37659
356.1385, 30.14430
356.6206, 29.11592
357.1027, 29.72334
357.5848, 30.95815
358.0669, 32.06444
358.5490, 32.44116
359.0312, 32.52179
359.5133, 32.70764
359.9954, 32.91150
360.4775, 33.00079
360.9596, 33.35297
361.4417, 33.38959
361.9239, 32.36639
362.4060, 29.38599
362.8881, 27.59290
363.3702, 29.11026
363.8523, 32.31583
364.3344, 34.85844
364.8166, 35.80487
365.2987, 36.14745
365.7808, 36.23959
366.2629, 36.12097
366.7450, 35.64355
367.2271, 34.66002
367.7093, 33.17201
368.1914, 31.36440
368.6735, 27.62231
369.1556, 25.14850
369.6377, 25.09254
370.1198, 27.09618
370.6020, 28.06502
371.0841, 26.66539
371.5662, 25.53653
372.0483, 26.18973
372.5304, 30.51920
373.0125, 32.89316
373.4947, 32.36792
373.9768, 30.01091
374.4589, 28.57838
374.9410, 28.76364
375.4231, 28.99826
375.9052, 28.82307
376.3874, 28.25764
376.8695, 26.78809
377.3516, 23.83536
377.8337, 20.90733
378.3158, 20.28828
378.7979, 22.39644
379.2801, 23.56618
379.7622, 22.30447
380.2443, 19.37836
380.7264, 18.57515
381.2085, 20.19640
381.6906, 21.83029
382.1728, 20.90538
382.6549, 17.90889
383.1370, 16.13974
383.6191, 16.65057
384.1012, 17.99371
384.5833, 17.33331
385.0655, 14.71518
385.5476, 12.92363
386.0297, 15.21538
386.5118, 19.14258
386.9939, 20.80806
387.4760, 19.68205
387.9582, 17.75250
388.4403, 16.63028
388.9224, 16.08342
389.4045, 15.63029
389.8866, 14.98175
390.3687, 14.39354
390.8509, 13.73802
391.3330, 13.11232
391.8151, 13.55136
392.2972, 17.04572
392.7793, 21.26848
393.2614, 24.06285
393.7436, 25.12061
394.2257, 24.26253
394.7078, 19.52274
395.1899, 12.60956
395.6720, 8.007935
396.1541, 8.434357
396.6363, 10.46262
397.1184, 12.71591
397.6005, 15.29597
398.0826, 17.31732
398.5647, 18.48758
399.0468, 19.08600
399.5290, 19.45119
400.0111, 19.15396
400.4932, 19.09769
400.9753, 18.85992
401.4574, 18.45964
401.9395, 20.84579
402.4217, 28.86244
402.9038, 36.68745
403.3859, 40.15292
403.8680, 37.04448
404.3501, 34.95108
404.8322, 35.11378
405.3144, 36.25819
405.7965, 34.62320
406.2786, 29.28078
406.7607, 24.22328
407.2428, 21.58536
407.7249, 21.46254
408.2071, 20.03320
408.6892, 16.92496
409.1713, 13.57831
409.6534, 11.58009
410.1355, 10.93562
410.6176, 11.69588
411.0998, 15.09189
411.5819, 19.12402
412.0640, 17.95801
412.5461, 11.80205
413.0282, 5.699432
413.5103, 4.558228
413.9925, 6.181168
414.4746, 5.505676
414.9567, 0.8345340
415.4388, 3.692200
415.9209, 2.933456
416.4030, 1.390472
416.8852, 5.028763
417.3673, 5.457733
417.8494, 4.524857
418.3315, 3.640182
418.8136, 2.893677
419.2957, 2.016052
419.7779, 0.5334010
420.2600, 1.011993
420.7421, 2.052017
421.2242, 2.500595
421.7063, 2.353134
422.1884, 0.9412690
422.6706, 1.231964
423.1527, 2.312103
423.6348, 0.9787900
424.1169, 0.8305210
424.5990, 2.517319
425.0811, 4.925171
425.5633, 5.065109
426.0454, 1.208023
426.5275, 4.243408
427.0096, 8.409088
427.4917, 11.55072
427.9738, 12.87080
428.4560, 11.47086
428.9381, 7.526825
429.4202, 5.598343
429.9023, 6.624619
430.3844, 7.964493
430.8665, 7.517395
431.3487, 4.896683
431.8308, 2.782501
432.3129, 1.313675
432.7950, 0.5744480
433.2771, 1.128799
433.7592, 3.031311
434.2414, 4.662796
434.7235, 4.790787
435.2056, 3.970078
435.6877, 4.668533
436.1698, 6.975967
436.6519, 9.608994
437.1341, 10.82588
437.6162, 11.31912
438.0983, 13.12444
438.5804, 17.65872
439.0625, 22.48654
439.5446, 24.82780
440.0268, 25.06339
440.5089, 24.57678
440.9910, 22.61496
441.4731, 21.20883
441.9552, 22.95959
442.4373, 28.93365
442.9195, 33.56589
443.4016, 31.93973
443.8837, 28.04871
444.3658, 26.75089
444.8479, 32.91263
445.3300, 38.42772
445.8122, 39.62161
446.2943, 37.13443
446.7764, 37.09750
447.2585, 43.87973
447.7406, 50.65137
448.2227, 53.92447
448.7049, 51.83655
449.1870, 49.64677
449.6691, 46.45929
450.1512, 43.62912
450.6333, 43.55811
451.1154, 47.47476
451.5976, 51.56165
452.0797, 55.08876
452.5618, 58.02391
453.0439, 59.37396
453.5260, 58.74335
454.0081, 57.69458
454.4903, 57.22939
454.9724, 57.35460
455.4545, 58.59113
455.9366, 61.44144
456.4187, 64.49435
456.9008, 64.94995
457.3830, 63.10808
457.8651, 61.29436
458.3472, 61.32507
458.8293, 61.88066
459.3114, 59.96893
459.7935, 55.62061
460.2757, 51.64447
460.7578, 50.92966
461.2399, 51.83307
461.7220, 52.07001
462.2041, 50.86469
462.6862, 49.41386
463.1684, 47.23010
463.6505, 45.09442
464.1326, 45.00241
464.6147, 51.20892
465.0968, 57.05963
465.5789, 57.94144
466.0611, 52.43335
466.5432, 49.53262
467.0253, 54.97443
467.5074, 62.06380
467.9895, 65.12177
468.4716, 58.35205
468.9538, 54.59169
469.4359, 55.42427
469.9180, 59.79001
470.4001, 64.65085
470.8822, 70.75407
471.3643, 75.96805
471.8465, 79.29332
472.3286, 80.58127
472.8107, 81.96127
473.2928, 83.50751
473.7749, 84.43169
474.2570, 83.20096
474.7392, 79.83232
475.2213, 78.16528
475.7034, 79.42804
476.1855, 82.15416
476.6676, 83.10210
477.1497, 82.61157
477.6319, 83.71567
478.1140, 90.65546
478.5961, 99.33475
479.0782, 102.7160
479.5603, 100.0823
480.0424, 96.40138
480.5246, 95.73090
481.0067, 96.44865
481.4888, 96.28018
481.9709, 93.85556
482.4530, 91.02151
482.9352, 88.79558
483.4173, 87.02878
483.8994, 85.07898
484.3815, 81.89685
484.8636, 78.84192
485.3457, 76.73682
485.8279, 75.77200
486.3100, 74.74438
486.7921, 73.13158
487.2742, 71.65875
487.7563, 71.09790
488.2384, 73.20915
488.7206, 73.11836
489.2027, 69.63763
489.6848, 63.69026
490.1669, 58.59735
490.6490, 54.10170
491.1311, 50.31148
491.6133, 48.05261
492.0954, 47.34804
492.5775, 44.44763
493.0596, 38.71655
493.5417, 33.56499
494.0238, 34.01810
494.5060, 38.73157
494.9881, 41.20261
495.4702, 38.87592
495.9523, 35.03293
496.4344, 34.76691
496.9165, 37.18755
497.3987, 38.94730
497.8808, 37.80429
498.3629, 35.34351
498.8450, 32.82744
499.3271, 30.30981
499.8092, 28.25398
500.2914, 27.40530
500.7735, 26.87498
501.2556, 25.77608
501.7377, 22.90775
502.2198, 20.65410
502.7019, 19.78844
503.1841, 19.91795
503.6662, 19.95416
504.1483, 19.52122
504.6304, 19.29457
505.1125, 19.48698
505.5946, 20.12215
506.0768, 21.02870
506.5589, 22.88831
507.0410, 23.99942
507.5231, 22.31544
508.0052, 17.10826
508.4873, 14.22104
508.9695, 14.95325
509.4516, 17.32373
509.9337, 17.50168
510.4158, 15.60394
510.8979, 13.84726
511.3800, 13.52365
511.8622, 13.88885
512.3443, 12.96190
512.8264, 10.83217
513.3085, 9.034271
513.7906, 9.464813
514.2728, 10.65218
514.7549, 10.36765
515.2370, 7.511261
515.7191, 5.234375
516.2012, 6.335220
516.6833, 9.118790
517.1655, 10.99435
517.6476, 11.14684
518.1297, 10.23894
518.6118, 8.196274
519.0939, 5.116669
519.5760, 1.948685
520.0582, 2.319153
520.5403, 5.648392
521.0224, 6.945938
521.5045, 5.326111
521.9866, 4.401306
522.4688, 4.804596
522.9509, 5.206024
523.4330, 3.561157
523.9151, 0.7055360
524.3972, 3.777512
524.8793, 4.534744
525.3615, 3.817261
525.8436, 3.748810
526.3257, 4.322983
526.8078, 5.055588
527.2899, 5.970993
527.7720, 6.797104
528.2542, 6.959930
528.7363, 6.441971
529.2184, 5.219620
529.7005, 2.295090
530.1826, 1.025040
530.6647, 2.850952
531.1469, 1.886673
531.6290, 0.5846710
532.1111, 0.5459900
532.5932, 1.130173
533.0753, 1.032333
533.5574, 1.571701
534.0396, 3.530472
534.5217, 3.080627
535.0038, 3.8070999E-02
535.4859, 1.181168
535.9680, 1.197510
536.4501, 4.153503
536.9323, 6.135193
537.4144, 7.245636
537.8965, 6.929825
538.3786, 4.579681
538.8607, 1.612457
539.3428, 0.1958310
539.8250, 0.3951870
540.3071, 1.235962
540.7892, 2.917114
541.2713, 4.682846
541.7534, 4.103897
542.2355, 1.409378
542.7177, 0.9768370
543.1998, 1.551193
543.6819, 0.8406520
544.1640, 0.5855260
544.6461, 2.716873
545.1282, 4.760651
545.6104, 7.160416
546.0925, 8.733582
546.5746, 7.964340
547.0567, 1.689102
547.5388, 3.140182
548.0209, 3.449661
548.5031, 0.6697540
548.9852, 2.029694
549.4673, 4.830444
549.9494, 6.799164
550.4315, 7.275360
550.9136, 6.270370
551.3958, 6.486465
551.8779, 8.293701
552.3600, 10.70619
552.8421, 13.55801
553.3242, 17.09128
553.8063, 18.37561
554.2885, 16.71739
554.7706, 14.38106
555.2527, 14.98216
555.7348, 17.94144
556.2169, 19.51231
556.6990, 17.93121
557.1812, 15.23003
557.6633, 13.86519
558.1454, 13.77159
558.6275, 14.71165
559.1096, 18.22183
559.5917, 21.55809
560.0739, 21.83267
560.5560, 18.80775
561.0381, 16.50626
561.5202, 17.42126
562.0023, 19.18690
562.4844, 20.03020
562.9666, 18.64485
563.4487, 17.93221
563.9308, 18.38312
564.4129, 19.43390
564.8950, 20.32103
565.3771, 21.26093
565.8593, 21.46487
566.3414, 20.43188
566.8235, 18.56497
567.3056, 17.58234
567.7877, 17.50645
568.2698, 18.19807
568.7520, 20.46588
569.2341, 23.53476
569.7162, 23.78125
570.1983, 20.89664
570.6804, 18.42072
571.1625, 20.98820
571.6447, 25.85023
572.1268, 28.26263
572.6089, 25.84248
573.0910, 23.52313
573.5731, 25.81493
574.0552, 30.16716
574.5374, 32.16704
575.0195, 26.58047
575.5016, 22.24530
575.9837, 23.07295
576.4658, 28.60957
576.9479, 32.28256
577.4301, 32.82416
577.9122, 32.52299
578.3943, 32.20863
578.8764, 31.80594
579.3585, 33.27533
579.8406, 37.46069
580.3228, 41.41653
580.8049, 41.19759
581.2870, 37.26379
581.7691, 36.05882
582.2512, 38.96280
582.7333, 43.52502
583.2155, 46.29733
583.6975, 47.70914
584.1796, 49.24866
584.6617, 51.82597
585.1439, 54.63171
585.6260, 56.67580
586.1081, 58.18314
586.5902, 60.30255
587.0723, 64.00333
587.5544, 68.10526
588.0366, 71.91257
588.5187, 75.34283
589.0008, 78.79034
589.4829, 82.90707
589.9650, 86.58693
590.4471, 88.92673
590.9293, 89.30524
591.4114, 90.09882
591.8935, 91.53979
592.3756, 93.13428
592.8577, 93.65373
593.3398, 92.99051
593.8220, 93.41357
594.3041, 96.33990
594.7862, 100.0158
595.2683, 99.96964
595.7504, 96.60513
596.2325, 92.87555
596.7147, 90.13054
597.1968, 88.25708
597.6789, 87.70554
598.1610, 88.54837
598.6431, 88.52805
599.1252, 85.20152
599.6074, 81.16287
600.0895, 78.62328
600.5716, 79.27948
601.0537, 78.98895
601.5358, 76.40596
602.0179, 72.98062
602.5001, 70.50768
602.9822, 69.56754
603.4643, 68.35010
603.9464, 66.35089
604.4285, 63.93671
604.9106, 62.17348
605.3928, 60.84239
605.8749, 60.15027
606.3570, 60.70026
606.8391, 61.95776
607.3212, 62.45078
607.8033, 62.18365
608.2855, 61.40048
608.7676, 59.31740
609.2497, 57.22681
609.7318, 57.13670
610.2139, 59.65604
610.6960, 62.58266
611.1782, 64.76746
611.6603, 66.69528
612.1424, 68.90981
612.6245, 72.27167
613.1066, 74.99956
613.5887, 76.89560
614.0709, 78.02119
614.5530, 78.41455
615.0351, 77.74353
615.5172, 77.03708
615.9993, 76.32727
616.4814, 75.79478
616.9636, 76.19276
617.4457, 77.50644
617.9278, 79.83434
618.4099, 84.12149
618.8920, 89.37727
619.3741, 92.75621
619.8563, 94.26334
620.3384, 95.49139
620.8205, 97.67499
621.3026, 100.2114
621.7847, 102.4595
622.2668, 104.3032
622.7490, 106.1107
623.2311, 108.3990
623.7132, 110.6229
624.1953, 112.0856
624.6774, 111.4481
625.1595, 111.5949
625.6417, 113.7512
626.1238, 116.7791
626.6059, 117.2030
627.0880, 114.1345
627.5701, 111.2089
628.0522, 110.0367
628.5344, 110.0542
629.0165, 108.2855
629.4986, 104.7029
629.9807, 100.5940
630.4628, 96.50180
630.9449, 92.62955
631.4271, 89.37738
631.9092, 86.81747
632.3913, 84.49316
632.8734, 82.17303
633.3555, 79.57831
633.8376, 76.36026
634.3198, 72.25906
634.8019, 68.17075
635.2840, 63.13901
635.7661, 58.21574
636.2482, 55.11804
636.7303, 56.20285
637.2125, 55.34908
637.6946, 50.66171
638.1767, 43.95309
638.6588, 40.48657
639.1409, 40.61720
639.6230, 41.40227
640.1052, 42.26093
640.5873, 42.70605
641.0694, 40.85367
641.5515, 36.86407
642.0336, 32.68785
642.5157, 28.97426
642.9979, 26.15846
643.4800, 25.28365
643.9621, 26.51486
644.4442, 27.33894
644.9263, 25.68365
645.4084, 23.60780
645.8906, 22.90492
