##NAMES=Fluorapophyllite-(K)
##RRUFFID=R040095
##IDEAL CHEMISTRY=KCa_4_Si_8_O_20_F&#183;8H_2_O
##LOCALITY=unknown
##OWNER=RRUFF
##SOURCE=University of Arizona Mineral Museum
##DESCRIPTION=Colorless crystals
##STATUS=The identification of this mineral has been confirmed by X-ray diffraction and chemical analysis
##URL=rruff.info/R040095
##MEASURED CHEMISTRY=(K_0.90_Na_0.04_)Ca_3.96_Si_8.00_O_20_(F_0.82_(OH)_0.18_)Â·8H_2_O
125.0042, 0.0000000E+00
125.4863, 23.10016
125.9684, 10.19006
126.4506, 3.763672
126.9327, 5.038452
127.4148, 6.911377
127.8969, 28.45941
128.3790, 54.54907
128.8611, 80.65936
129.3432, 106.1924
129.8254, 144.1786
130.3075, 204.0599
130.7896, 265.5104
131.2717, 322.3827
131.7538, 374.4871
132.2359, 425.1235
132.7181, 477.6428
133.2002, 533.7898
133.6823, 573.8625
134.1644, 588.1672
134.6465, 598.1324
135.1286, 610.5539
135.6108, 627.6622
136.0929, 653.5131
136.5750, 693.7799
137.0571, 752.6651
137.5392, 801.6477
138.0213, 851.9031
138.5035, 885.6838
138.9856, 890.4141
139.4677, 864.6124
139.9498, 813.2725
140.4319, 736.1464
140.9140, 621.7790
141.3962, 532.0451
141.8783, 468.2812
142.3604, 429.9332
142.8425, 421.8134
143.3246, 445.1699
143.8067, 483.5898
144.2889, 518.2903
144.7710, 547.5862
145.2531, 584.7832
145.7352, 633.7112
146.2173, 668.8530
146.6994, 677.6639
147.1816, 675.4999
147.6637, 669.8033
148.1458, 668.5698
148.6279, 671.1485
149.1100, 677.3041
149.5921, 693.5775
150.0743, 711.9844
150.5564, 717.6136
151.0385, 705.2744
151.5206, 684.7651
152.0027, 665.8126
152.4848, 647.3304
152.9670, 633.7695
153.4491, 628.1998
153.9312, 628.2948
154.4133, 626.8754
154.8954, 617.5820
155.3775, 614.1144
155.8597, 632.3141
156.3418, 671.2736
156.8239, 720.7896
157.3060, 776.5068
157.7881, 838.3197
158.2702, 907.3476
158.7524, 981.3278
159.2345, 1065.375
159.7166, 1161.744
160.1987, 1270.093
160.6808, 1389.265
161.1629, 1524.355
161.6451, 1671.735
162.1272, 1814.525
162.6093, 1951.927
163.0914, 2079.640
163.5735, 2200.490
164.0556, 2315.467
164.5378, 2410.945
165.0199, 2490.303
165.5020, 2551.738
165.9841, 2551.540
166.4662, 2461.429
166.9483, 2319.774
167.4305, 2155.635
167.9126, 1970.679
168.3947, 1779.141
168.8768, 1585.769
169.3589, 1390.242
169.8410, 1216.939
170.3232, 1077.760
170.8053, 958.9465
171.2874, 848.9520
171.7695, 746.7351
172.2516, 655.5243
172.7337, 579.3677
173.2159, 518.3674
173.6980, 465.3855
174.1801, 417.4666
174.6622, 378.3359
175.1443, 357.2465
175.6264, 355.2358
176.1086, 349.5548
176.5907, 309.7899
177.0728, 230.5078
177.5549, 167.7122
178.0370, 144.5726
178.5191, 135.0082
179.0013, 124.9601
179.4834, 112.1691
179.9655, 99.61627
180.4476, 90.74463
180.9297, 86.02661
181.4118, 81.59540
181.8940, 73.39734
182.3761, 67.63812
182.8582, 67.75421
183.3403, 76.47784
183.8224, 86.27643
184.3046, 86.94165
184.7867, 76.01544
185.2688, 72.33777
185.7509, 84.21588
186.2330, 101.9169
186.7151, 120.2274
187.1973, 138.2994
187.6794, 158.3589
188.1615, 184.7737
188.6436, 219.1089
189.1257, 247.6745
189.6078, 255.9063
190.0900, 266.1671
190.5721, 291.7103
191.0542, 334.9059
191.5363, 388.1206
192.0184, 445.6158
192.5005, 508.7974
192.9827, 565.2104
193.4648, 608.5270
193.9469, 646.5994
194.4290, 681.2155
194.9111, 714.5187
195.3932, 751.7819
195.8754, 799.8632
196.3575, 861.0297
196.8396, 917.6425
197.3217, 964.4253
197.8038, 1009.825
198.2859, 1057.368
198.7681, 1107.988
199.2502, 1160.472
199.7323, 1213.369
200.2144, 1266.135
200.6965, 1322.781
201.1786, 1393.638
201.6608, 1460.599
202.1429, 1513.282
202.6250, 1552.365
203.1071, 1586.033
203.5892, 1620.060
204.0713, 1653.854
204.5535, 1693.774
205.0356, 1750.314
205.5177, 1804.413
205.9998, 1848.492
206.4819, 1882.478
206.9640, 1909.319
207.4462, 1935.272
207.9283, 1961.744
208.4104, 1966.833
208.8925, 1943.108
209.3746, 1902.008
209.8567, 1846.598
210.3388, 1777.897
210.8210, 1697.414
211.3031, 1604.095
211.7852, 1498.098
212.2673, 1392.010
212.7494, 1282.420
213.2315, 1177.810
213.7137, 1079.698
214.1958, 989.6413
214.6779, 909.3041
215.1600, 842.4031
215.6421, 788.1735
216.1242, 736.5573
216.6064, 686.8636
217.0885, 641.6091
217.5706, 596.8517
218.0527, 556.6664
218.5348, 529.7115
219.0169, 526.2499
219.4991, 540.7621
219.9812, 542.8054
220.4633, 519.8531
220.9454, 502.7761
221.4275, 503.6877
221.9096, 517.4968
222.3918, 535.8228
222.8739, 555.2639
223.3560, 575.5508
223.8381, 595.6089
224.3202, 614.9656
224.8023, 635.1022
225.2845, 658.7043
225.7666, 682.8257
226.2487, 703.1827
226.7308, 716.8099
227.2129, 726.6542
227.6950, 741.4758
228.1772, 767.5654
228.6593, 782.6859
229.1414, 777.5942
229.6235, 758.8301
230.1056, 731.1266
230.5877, 694.4809
231.0699, 653.6935
231.5520, 617.7856
232.0341, 589.9978
232.5162, 555.5665
232.9983, 501.3441
233.4804, 441.9088
233.9626, 388.9280
234.4447, 345.7021
234.9268, 308.8278
235.4089, 273.2540
235.8910, 238.2379
236.3731, 210.1494
236.8553, 199.6777
237.3374, 191.4495
237.8195, 170.9889
238.3016, 135.0840
238.7837, 97.31891
239.2658, 70.45685
239.7480, 54.28625
240.2301, 40.66321
240.7122, 28.07489
241.1943, 17.25824
241.6764, 9.769165
242.1585, 5.751648
242.6407, 0.4677730
243.1228, 10.80109
243.6049, 26.91315
244.0870, 41.38562
244.5691, 54.41763
245.0512, 63.33780
245.5334, 65.78882
246.0155, 62.13251
246.4976, 56.16101
246.9797, 46.01486
247.4618, 34.96033
247.9439, 33.10477
248.4261, 44.97687
248.9082, 59.30139
249.3903, 68.39377
249.8724, 72.47806
250.3545, 70.01010
250.8366, 53.89160
251.3188, 32.93048
251.8009, 22.78635
252.2830, 26.57132
252.7651, 31.34714
253.2472, 25.44977
253.7293, 11.99377
254.2115, 1.177795
254.6936, 4.401855
255.1757, 6.998657
255.6578, 6.897156
256.1399, 4.139343
256.6220, 5.154053
257.1042, 15.61755
257.5863, 33.42236
258.0684, 48.75610
258.5505, 60.56702
259.0326, 70.44714
259.5147, 79.10596
259.9969, 86.65900
260.4790, 93.18463
260.9611, 97.85321
261.4432, 102.2460
261.9253, 111.2050
262.4074, 126.6230
262.8896, 143.1968
263.3717, 160.6363
263.8538, 177.7826
264.3359, 192.4483
264.8180, 203.9561
265.3001, 212.0814
265.7823, 215.1082
266.2644, 209.0939
266.7465, 206.9719
267.2286, 214.2523
267.7107, 225.6700
268.1928, 235.0094
268.6750, 240.5177
269.1571, 243.0670
269.6392, 243.9926
270.1213, 243.9546
270.6034, 239.7250
271.0855, 229.9645
271.5677, 216.8362
272.0498, 199.4694
272.5319, 178.9658
273.0140, 161.4969
273.4961, 154.8505
273.9782, 162.8083
274.4604, 161.2161
274.9425, 140.9938
275.4246, 120.9726
275.9067, 110.6105
276.3888, 109.1223
276.8709, 111.1053
277.3531, 112.4097
277.8352, 113.1159
278.3173, 116.9941
278.7994, 132.0311
279.2815, 141.5447
279.7636, 136.8070
280.2458, 124.5187
280.7279, 115.8627
281.2100, 117.2198
281.6921, 125.9974
282.1742, 132.2676
282.6563, 131.6291
283.1385, 134.9422
283.6206, 145.9166
284.1027, 160.0649
284.5848, 172.5443
285.0669, 181.5959
285.5490, 190.0428
286.0312, 203.4774
286.5133, 225.1583
286.9954, 243.1496
287.4775, 248.7052
287.9596, 255.7520
288.4417, 272.2892
288.9239, 299.8059
289.4060, 336.0414
289.8881, 382.9824
290.3702, 442.1963
290.8523, 490.5942
291.3344, 517.5148
291.8166, 541.8021
292.2987, 573.9354
292.7808, 612.0294
293.2629, 648.4549
293.7450, 678.0861
294.2271, 701.6266
294.7093, 721.7702
295.1914, 735.7146
295.6735, 751.7093
296.1556, 779.8630
296.6377, 812.5807
297.1198, 836.1087
297.6020, 844.7587
298.0841, 842.4717
298.5662, 832.3030
299.0483, 813.1511
299.5304, 795.8483
300.0125, 786.6081
300.4947, 781.4600
300.9768, 774.1711
301.4589, 763.6912
301.9410, 753.2371
302.4231, 742.9487
302.9052, 733.4959
303.3874, 728.9075
303.8695, 731.4036
304.3516, 738.4291
304.8337, 746.6486
305.3158, 756.5137
305.7979, 765.8324
306.2801, 773.1270
306.7622, 778.6413
307.2443, 782.6687
307.7264, 786.2948
308.2085, 792.8231
308.6906, 806.5386
309.1728, 829.0334
309.6549, 846.1605
310.1370, 852.7905
310.6191, 856.5532
311.1012, 864.1732
311.5833, 875.7021
312.0655, 886.3035
312.5476, 891.8062
313.0297, 892.3049
313.5118, 894.3990
313.9939, 896.7646
314.4760, 901.7262
314.9582, 910.0587
315.4403, 921.7964
315.9224, 937.8944
316.4045, 959.1544
316.8866, 982.5025
317.3687, 999.6669
317.8509, 1005.350
318.3330, 1011.931
318.8151, 1022.959
319.2972, 1033.266
319.7793, 1037.714
320.2614, 1035.492
320.7436, 1030.575
321.2257, 1028.960
321.7078, 1033.028
322.1899, 1031.391
322.6720, 1022.518
323.1541, 1009.205
323.6363, 991.7543
324.1184, 970.5666
324.6005, 946.0910
325.0826, 916.5894
325.5647, 883.7781
326.0468, 860.1453
326.5290, 851.5348
327.0111, 842.3097
327.4932, 822.7192
327.9753, 799.4410
328.4574, 782.3594
328.9395, 776.3731
329.4217, 775.7535
329.9038, 772.4834
330.3859, 766.2528
330.8680, 761.3058
331.3501, 759.3313
331.8322, 759.4136
332.3144, 760.0834
332.7965, 761.0422
333.2786, 763.7136
333.7607, 767.1450
334.2428, 772.8658
334.7249, 788.1552
335.2070, 818.3372
335.6891, 847.0724
336.1713, 852.4802
336.6534, 835.6183
337.1355, 819.6180
337.6176, 810.2153
338.0997, 802.2141
338.5818, 792.7769
339.0640, 781.0477
339.5461, 763.1920
340.0282, 735.8324
340.5103, 699.5290
340.9924, 661.8542
341.4745, 620.6651
341.9567, 580.7503
342.4388, 543.7191
342.9209, 509.0640
343.4030, 475.5406
343.8851, 442.6438
344.3672, 410.7088
344.8494, 380.6334
345.3315, 356.2253
345.8136, 327.9355
346.2957, 288.6085
346.7778, 250.4445
347.2599, 223.0009
347.7421, 206.9273
348.2242, 196.2712
348.7063, 184.9076
349.1884, 172.4649
349.6705, 163.0102
350.1526, 159.9127
350.6348, 156.4725
351.1169, 150.6075
351.5990, 142.8095
352.0811, 134.1628
352.5632, 124.9879
353.0453, 115.6648
353.5275, 108.0493
354.0096, 103.8245
354.4917, 95.85004
354.9738, 77.28522
355.4559, 55.80780
355.9380, 37.54797
356.4202, 23.37225
356.9023, 13.16425
357.3844, 9.515930
357.8665, 10.68896
358.3486, 7.058411
358.8307, 5.446289
359.3129, 19.27472
359.7950, 26.65228
360.2771, 28.25189
360.7592, 27.05292
361.2413, 21.68048
361.7234, 15.14923
362.2056, 10.44763
362.6877, 7.715637
363.1698, 5.833923
363.6519, 3.484131
364.1340, 1.394836
364.6161, 4.410461
365.0983, 24.70801
365.5804, 35.46661
366.0625, 22.03375
366.5446, 4.470886
367.0267, 27.86932
367.5089, 42.29919
367.9910, 50.41113
368.4731, 56.32489
368.9552, 57.17316
369.4373, 61.99554
369.9194, 75.08759
370.4016, 88.06110
370.8837, 95.58002
371.3658, 97.88330
371.8479, 98.66083
372.3300, 101.1782
372.8121, 105.0707
373.2943, 106.0291
373.7764, 103.5012
374.2585, 98.48737
374.7406, 89.49951
375.2227, 79.18182
375.7048, 70.88287
376.1870, 66.01794
376.6691, 62.82623
377.1512, 59.02350
377.6333, 54.55707
378.1154, 50.52386
378.5975, 48.11682
379.0797, 45.25543
379.5618, 38.85004
380.0439, 28.96210
380.5260, 21.82184
381.0081, 19.28015
381.4902, 21.60376
381.9724, 31.46930
382.4545, 49.74353
382.9366, 66.31079
383.4187, 71.90942
383.9008, 68.55951
384.3829, 73.03961
384.8651, 88.27942
385.3472, 108.0441
385.8293, 131.4678
386.3114, 157.2413
386.7935, 182.9874
387.2756, 207.8184
387.7578, 231.6589
388.2399, 254.3239
388.7220, 274.5774
389.2041, 295.7280
389.6862, 315.8583
390.1683, 338.2682
390.6505, 368.0162
391.1326, 403.3868
391.6147, 437.2575
392.0968, 462.7729
392.5789, 481.6194
393.0610, 512.1906
393.5432, 568.4311
394.0253, 615.5991
394.5074, 639.9623
394.9895, 651.4260
395.4716, 661.9751
395.9537, 675.8486
396.4359, 691.4476
396.9180, 707.0950
397.4001, 722.2461
397.8822, 733.5720
398.3643, 740.1708
398.8464, 745.2755
399.3286, 752.6324
399.8107, 760.7894
400.2928, 761.7621
400.7749, 747.2219
401.2570, 726.1346
401.7391, 711.9210
402.2213, 704.9370
402.7034, 696.2466
403.1855, 677.9312
403.6676, 651.8016
404.1497, 630.5444
404.6318, 620.9573
405.1140, 607.7563
405.5961, 584.5422
406.0782, 557.1008
406.5603, 530.1418
407.0424, 504.8817
407.5245, 484.7665
408.0067, 477.3701
408.4888, 490.1351
408.9709, 487.0184
409.4530, 448.9037
409.9351, 415.2374
410.4172, 406.8661
410.8994, 415.1041
411.3815, 419.6390
411.8636, 407.9251
412.3457, 387.4888
412.8278, 376.0872
413.3099, 374.0414
413.7921, 380.2242
414.2742, 402.2436
414.7563, 427.5351
415.2384, 447.1695
415.7205, 460.0748
416.2026, 471.5507
416.6848, 480.1334
417.1669, 489.4670
417.6490, 510.5123
418.1311, 545.7827
418.6132, 588.8355
419.0953, 636.3189
419.5775, 688.4588
420.0596, 743.9171
420.5417, 801.4741
421.0238, 863.6175
421.5059, 925.4679
421.9880, 993.6044
422.4702, 1084.353
422.9523, 1202.613
423.4344, 1334.698
423.9165, 1457.490
424.3986, 1564.870
424.8807, 1678.014
425.3629, 1795.277
425.8450, 1918.404
426.3271, 2053.309
426.8092, 2195.351
427.2913, 2333.721
427.7734, 2462.379
428.2556, 2581.443
428.7377, 2695.476
429.2198, 2812.395
429.7019, 2905.920
430.1840, 2982.269
430.6661, 3025.090
431.1483, 3018.982
431.6304, 2961.229
432.1125, 2860.551
432.5946, 2713.072
433.0767, 2527.466
433.5588, 2324.616
434.0410, 2099.721
434.5231, 1881.902
435.0052, 1696.686
435.4873, 1538.865
435.9694, 1381.838
436.4515, 1212.153
436.9337, 1055.056
437.4158, 924.9846
437.8979, 816.6708
438.3800, 722.1176
438.8621, 637.7693
439.3442, 564.1584
439.8264, 502.5544
440.3085, 457.7963
440.7906, 411.1851
441.2727, 355.9703
441.7548, 305.2718
442.2369, 267.8168
442.7191, 240.2763
443.2012, 213.7034
443.6833, 182.5389
444.1654, 149.3466
444.6475, 121.0886
445.1296, 97.80676
445.6118, 79.38379
446.0939, 71.92218
446.5760, 65.29675
447.0581, 50.15564
447.5402, 26.09540
448.0223, 4.592896
448.5045, 5.520508
448.9866, 9.044067
449.4687, 15.56744
449.9508, 25.95117
450.4329, 36.57013
450.9150, 46.16406
451.3972, 53.80334
451.8793, 56.27167
452.3614, 48.77014
452.8435, 42.59802
453.3256, 44.04816
453.8077, 47.45660
454.2899, 43.57422
454.7720, 30.96667
455.2541, 18.89111
455.7362, 19.16998
456.2183, 34.20892
456.7004, 41.14789
457.1826, 35.49390
457.6647, 25.98572
458.1468, 8.155090
458.6289, 10.11975
459.1110, 15.93506
459.5931, 3.036804
460.0753, 15.55151
460.5574, 20.57922
461.0395, 11.81635
461.5216, 5.257202
462.0037, 3.208679
462.4858, 4.685730
462.9680, 11.90747
463.4501, 23.00958
463.9322, 27.78241
464.4143, 19.04742
464.8964, 6.170593
465.3785, 3.504578
465.8607, 10.20044
466.3428, 14.95795
466.8249, 17.68646
467.3070, 20.48206
467.7891, 27.49969
468.2712, 37.69391
468.7534, 55.09192
469.2355, 84.45312
469.7176, 116.8285
470.1997, 143.5467
470.6818, 167.5348
471.1639, 200.0856
471.6461, 249.4354
472.1282, 312.0087
472.6103, 374.0323
473.0924, 433.5946
473.5745, 499.0565
474.0566, 570.6928
474.5388, 650.9255
475.0209, 742.5530
475.5030, 846.0688
475.9851, 956.8375
476.4672, 1068.317
476.9493, 1186.690
477.4315, 1326.224
477.9136, 1487.786
478.3957, 1651.541
478.8778, 1803.632
479.3599, 1947.547
479.8420, 2096.496
480.3242, 2252.425
480.8063, 2409.610
481.2884, 2580.038
481.7705, 2742.411
482.2526, 2877.643
482.7347, 2981.107
483.2169, 3057.870
483.6990, 3115.983
484.1811, 3153.698
484.6632, 3131.184
485.1453, 3027.320
485.6274, 2892.332
486.1096, 2733.226
486.5917, 2558.284
487.0738, 2373.785
487.5559, 2181.638
488.0380, 1986.633
488.5201, 1784.852
489.0023, 1584.396
489.4844, 1415.956
489.9665, 1286.062
490.4486, 1171.561
490.9307, 1054.804
491.4128, 939.0022
491.8950, 837.2764
492.3771, 753.9534
492.8592, 679.5606
493.3413, 609.4480
493.8234, 546.3616
494.3055, 495.1599
494.7877, 456.2657
495.2698, 422.8766
495.7519, 386.8516
496.2340, 347.1930
496.7161, 315.8514
497.1982, 295.8011
497.6804, 281.1237
498.1625, 271.4688
498.6446, 265.5746
499.1267, 264.1693
499.6088, 268.2020
500.0909, 268.3530
500.5730, 251.9512
501.0551, 222.7677
501.5373, 197.2659
502.0194, 176.6099
502.5015, 164.0455
502.9836, 168.3873
503.4657, 184.9045
503.9478, 184.6895
504.4300, 150.7672
504.9121, 118.3002
505.3942, 101.7271
505.8763, 94.30219
506.3584, 87.61737
506.8405, 79.66333
507.3227, 71.71912
507.8048, 64.81384
508.2869, 58.66943
508.7690, 57.24561
509.2511, 70.41376
509.7332, 76.71686
510.2154, 65.75220
510.6975, 47.25507
511.1796, 32.85889
511.6617, 25.89313
512.1439, 23.60663
512.6260, 24.96417
513.1081, 29.10699
513.5902, 31.31799
514.0723, 29.21362
514.5544, 29.59143
515.0366, 40.09302
515.5187, 58.96533
516.0008, 72.29968
516.4829, 72.51404
516.9650, 74.96411
517.4471, 85.46313
517.9293, 99.72095
518.4114, 114.6260
518.8935, 129.9530
519.3756, 145.2814
519.8577, 159.0287
520.3398, 170.9946
520.8220, 192.2292
521.3041, 228.4189
521.7862, 265.0577
522.2683, 296.5818
522.7504, 328.2080
523.2325, 366.4054
523.7147, 412.6780
524.1968, 458.3596
524.6789, 494.2673
525.1610, 525.5946
525.6431, 565.5830
526.1252, 615.9869
526.6074, 666.6044
527.0895, 708.8014
527.5716, 745.8192
528.0537, 793.0557
528.5358, 864.3398
529.0179, 925.7290
529.5001, 960.4312
529.9822, 991.0585
530.4643, 1037.699
530.9464, 1102.464
531.4285, 1178.347
531.9106, 1264.711
532.3928, 1355.392
532.8749, 1415.110
533.3570, 1429.317
533.8391, 1453.480
534.3212, 1520.288
534.8033, 1594.112
535.2855, 1639.103
535.7676, 1652.675
536.2497, 1665.570
536.7318, 1695.929
537.2139, 1729.967
537.6960, 1752.506
538.1782, 1763.174
538.6603, 1765.504
539.1424, 1761.001
539.6245, 1750.328
540.1066, 1734.649
540.5887, 1711.515
541.0709, 1687.740
541.5530, 1662.637
542.0351, 1637.745
542.5172, 1614.924
542.9993, 1592.867
543.4814, 1567.711
543.9636, 1536.515
544.4457, 1503.341
544.9278, 1478.851
545.4099, 1462.835
545.8920, 1430.424
546.3741, 1367.759
546.8563, 1301.559
547.3384, 1258.857
547.8205, 1237.585
548.3026, 1223.599
548.7847, 1222.739
549.2668, 1221.238
549.7490, 1212.822
550.2311, 1198.556
550.7132, 1178.389
551.1953, 1153.011
551.6774, 1128.781
552.1595, 1114.026
552.6417, 1109.244
553.1238, 1108.124
553.6059, 1111.695
554.0880, 1117.776
554.5701, 1129.486
555.0522, 1141.314
555.5344, 1144.278
556.0165, 1134.684
556.4986, 1128.028
556.9807, 1137.754
557.4628, 1157.171
557.9449, 1172.999
558.4271, 1183.992
558.9092, 1196.743
559.3913, 1216.456
559.8734, 1240.880
560.3555, 1260.533
560.8376, 1265.094
561.3198, 1279.608
561.8019, 1309.809
562.2840, 1346.054
562.7661, 1379.626
563.2482, 1411.931
563.7303, 1450.498
564.2125, 1501.449
564.6946, 1560.957
565.1767, 1619.826
565.6588, 1677.897
566.1409, 1739.812
566.6230, 1805.522
567.1052, 1876.701
567.5873, 1953.029
568.0694, 2034.244
568.5515, 2133.732
569.0336, 2269.430
569.5157, 2406.370
569.9979, 2517.568
570.4800, 2617.726
570.9621, 2735.891
571.4442, 2880.702
571.9263, 3037.999
572.4084, 3187.802
572.8906, 3327.721
573.3727, 3484.464
573.8548, 3664.378
574.3369, 3849.308
574.8190, 4033.196
575.3011, 4216.031
575.7833, 4399.541
576.2654, 4582.848
576.7475, 4769.182
577.2296, 4972.241
577.7117, 5172.330
578.1938, 5335.839
578.6760, 5464.891
579.1581, 5592.519
579.6402, 5741.680
580.1223, 5898.432
580.6044, 6020.220
581.0865, 6104.544
581.5686, 6156.792
582.0507, 6172.040
582.5328, 6164.235
583.0150, 6144.617
583.4971, 6108.624
583.9792, 6043.594
584.4613, 5943.462
584.9434, 5811.168
585.4255, 5644.785
585.9077, 5447.597
586.3898, 5235.675
586.8719, 5011.493
587.3540, 4782.106
587.8361, 4555.682
588.3182, 4332.585
588.8004, 4102.740
589.2825, 3860.185
589.7646, 3620.180
590.2467, 3376.213
590.7288, 3142.967
591.2109, 2936.304
591.6931, 2757.460
592.1752, 2592.101
592.6573, 2429.985
593.1394, 2271.432
593.6215, 2113.207
594.1036, 1952.646
594.5858, 1805.226
595.0679, 1675.737
595.5500, 1561.585
596.0321, 1462.552
