##NAMES=Fluoro-richterite
##RRUFFID=R060290
##IDEAL CHEMISTRY=Na(NaCa)Mg_5_Si_8_O_22_F_2_
##LOCALITY=Koschka Valley, Badakshan Province, Afghanistan
##OWNER=RRUFF
##SOURCE=Herb Obodda
##DESCRIPTION=Tan colored transparent prismatic crystal
##STATUS=The identification of this mineral has been made only by X-ray diffraction.
##URL=rruff.info/R060290
194.1473, 0.0000000E+00
194.6294, 1.493164
195.1115, 0.2648930
195.5936, 0.1672360
196.0757, 0.4875490
196.5579, 0.6948240
197.0400, 0.1373290
197.5221, 0.9890140
198.0042, 2.637207
198.4863, 6.370728
198.9684, 12.27856
199.4506, 19.76733
199.9327, 28.13879
200.4148, 37.50293
200.8969, 46.87329
201.3790, 56.05103
201.8611, 64.96643
202.3433, 73.10498
202.8254, 80.04614
203.3075, 86.82593
203.7896, 95.45203
204.2717, 106.4183
204.7538, 116.9257
205.2360, 125.4858
205.7181, 131.7965
206.2002, 138.4795
206.6823, 145.1296
207.1644, 152.5500
207.6465, 163.1836
208.1287, 178.2936
208.6108, 191.8109
209.0929, 200.6200
209.5750, 203.8619
210.0571, 207.2202
210.5392, 210.6375
211.0214, 214.3627
211.5035, 218.9254
211.9856, 224.3904
212.4677, 230.4634
212.9498, 237.2433
213.4319, 244.9523
213.9140, 252.1481
214.3962, 257.8979
214.8783, 263.7461
215.3604, 273.7671
215.8425, 290.1295
216.3246, 305.8392
216.8067, 317.2423
217.2889, 322.2494
217.7710, 329.5409
218.2531, 339.6660
218.7352, 351.8516
219.2173, 364.7103
219.6994, 378.7570
220.1816, 392.5468
220.6637, 405.6627
221.1458, 418.0797
221.6279, 429.8551
222.1100, 440.4109
222.5921, 450.6212
223.0743, 463.3317
223.5564, 479.6117
224.0385, 496.5229
224.5206, 512.6926
225.0027, 528.9991
225.4848, 543.0720
225.9670, 553.7394
226.4491, 562.4114
226.9312, 573.1122
227.4133, 586.9899
227.8954, 601.0985
228.3775, 613.9830
228.8597, 626.5374
229.3418, 635.7009
229.8239, 641.7250
230.3060, 644.3669
230.7881, 643.3127
231.2702, 638.2692
231.7524, 629.4512
232.2345, 618.0081
232.7166, 603.2953
233.1987, 587.8844
233.6808, 571.1431
234.1629, 554.2970
234.6451, 536.0507
235.1272, 514.5652
235.6093, 490.1945
236.0914, 464.7916
236.5735, 437.5327
237.0556, 411.8774
237.5378, 387.5570
238.0199, 363.5061
238.5020, 342.2330
238.9841, 323.8044
239.4662, 307.4082
239.9483, 293.4100
240.4305, 283.0713
240.9126, 273.2747
241.3947, 264.5266
241.8768, 256.2374
242.3589, 246.4537
242.8410, 233.2250
243.3232, 221.4092
243.8053, 213.3508
244.2874, 210.5386
244.7695, 208.0212
245.2516, 206.6176
245.7337, 205.1116
246.2159, 200.7697
246.6980, 192.4160
247.1801, 182.8795
247.6622, 173.1533
248.1443, 162.9366
248.6264, 153.1400
249.1086, 144.1608
249.5907, 135.3868
250.0728, 125.3922
250.5549, 113.1892
251.0370, 101.5189
251.5191, 91.31677
252.0013, 83.61926
252.4834, 76.85168
252.9655, 71.37854
253.4476, 66.65161
253.9297, 61.60181
254.4118, 55.76965
254.8940, 50.49585
255.3761, 46.28223
255.8582, 43.28784
256.3403, 40.72083
256.8224, 38.75708
257.3046, 37.09985
257.7867, 35.26685
258.2688, 33.24036
258.7509, 31.13989
259.2330, 29.14294
259.7151, 27.40503
260.1973, 24.79382
260.6794, 20.80579
261.1615, 16.50317
261.6436, 13.45837
262.1257, 11.78955
262.6078, 11.07739
263.0900, 11.56311
263.5721, 13.49988
264.0542, 14.05969
264.5363, 12.77612
265.0184, 10.65295
265.5005, 9.061523
265.9827, 8.354980
266.4648, 7.057007
266.9469, 4.340332
267.4290, 0.1337890
267.9111, 2.263672
268.3932, 2.165771
268.8754, 1.324829
269.3575, 1.704590
269.8396, 3.511597
270.3217, 5.817261
270.8038, 8.804565
271.2859, 12.36682
271.7681, 13.81299
272.2502, 12.31909
272.7323, 10.40125
273.2144, 10.98438
273.6965, 14.62073
274.1786, 17.79358
274.6608, 20.12659
275.1429, 21.44019
275.6250, 19.97632
276.1071, 14.92151
276.5892, 9.409180
277.0714, 6.574219
277.5535, 6.657104
278.0356, 6.819214
278.5177, 6.403687
278.9998, 5.687988
279.4819, 6.293701
279.9641, 8.665649
280.4462, 10.39746
280.9283, 8.775391
281.4104, 3.659546
281.8925, 0.3536380
282.3746, 0.2609860
282.8568, 2.035767
283.3389, 1.959595
283.8210, 5.7861000E-02
284.3031, 3.147339
284.7852, 7.246460
285.2673, 12.19336
285.7495, 16.07568
286.2316, 18.30188
286.7137, 19.79785
287.1958, 22.86035
287.6779, 27.54041
288.1600, 31.68445
288.6422, 33.54553
289.1243, 33.47437
289.6064, 33.85693
290.0885, 34.97156
290.5706, 36.46436
291.0527, 38.12451
291.5349, 39.90637
292.0170, 40.95447
292.4991, 40.63147
292.9812, 39.18762
293.4633, 37.10938
293.9454, 34.21973
294.4276, 31.63440
294.9097, 30.90112
295.3918, 31.82019
295.8739, 33.36658
296.3560, 36.04602
296.8381, 38.87781
297.3203, 38.67432
297.8024, 35.02637
298.2845, 31.42529
298.7666, 32.57349
299.2487, 36.96655
299.7308, 40.09766
300.2130, 38.57007
300.6951, 35.22583
301.1772, 35.22388
301.6593, 38.54688
302.1414, 41.99390
302.6235, 42.35669
303.1057, 40.82910
303.5878, 39.69861
304.0699, 39.61011
304.5520, 40.44226
305.0341, 42.65491
305.5162, 46.02966
305.9984, 48.89807
306.4805, 48.68713
306.9626, 47.52917
307.4447, 48.60193
307.9268, 54.48206
308.4089, 60.58154
308.8911, 62.32886
309.3732, 60.59546
309.8553, 59.00647
310.3374, 59.91174
310.8195, 61.90356
311.3016, 63.54565
311.7838, 64.40125
312.2659, 65.15405
312.7480, 66.57629
313.2301, 68.22766
313.7122, 69.08118
314.1943, 66.60278
314.6765, 64.54370
315.1586, 66.05383
315.6407, 72.56885
316.1228, 79.12781
316.6049, 82.82837
317.0870, 85.07092
317.5692, 88.05664
318.0513, 93.08801
318.5334, 98.64612
319.0155, 104.3706
319.4976, 110.5146
319.9797, 115.1494
320.4619, 116.0453
320.9440, 115.6552
321.4261, 116.6746
321.9082, 121.0046
322.3903, 125.5884
322.8724, 129.2842
323.3546, 132.0348
323.8367, 135.5214
324.3188, 141.0405
324.8009, 146.9041
325.2830, 151.6270
325.7651, 155.1166
326.2473, 157.7739
326.7294, 159.0438
327.2115, 159.1615
327.6936, 160.3376
328.1757, 164.9156
328.6578, 168.8464
329.1400, 170.0392
329.6221, 163.3250
330.1042, 161.3337
330.5863, 166.9684
331.0684, 177.3462
331.5505, 184.0990
332.0327, 185.8308
332.5148, 185.7517
332.9969, 184.9407
333.4790, 183.0710
333.9611, 181.9869
334.4432, 181.9431
334.9254, 182.4121
335.4075, 182.5463
335.8896, 182.2766
336.3717, 181.9834
336.8538, 182.4047
337.3359, 183.9106
337.8180, 180.8158
338.3001, 171.1498
338.7823, 160.2594
339.2644, 155.0139
339.7465, 156.9253
340.2286, 157.0920
340.7107, 153.4137
341.1928, 146.2288
341.6750, 136.4949
342.1571, 123.2123
342.6392, 110.7379
343.1213, 103.3789
343.6034, 101.2092
344.0855, 97.97864
344.5677, 92.13025
345.0498, 85.16626
345.5319, 81.35791
346.0140, 80.81897
346.4961, 79.98083
346.9782, 75.95496
347.4604, 69.47815
347.9425, 64.17590
348.4246, 60.52734
348.9067, 57.71216
349.3888, 54.27100
349.8709, 50.46912
350.3531, 47.70776
350.8352, 47.17065
351.3173, 48.05200
351.7994, 49.08069
352.2815, 50.24902
352.7636, 51.02490
353.2458, 50.21375
353.7279, 48.62683
354.2100, 48.03784
354.6921, 50.14246
355.1742, 52.81335
355.6563, 53.52869
356.1385, 52.45117
356.6206, 51.58838
357.1027, 51.11414
357.5848, 52.04309
358.0669, 55.92273
358.5490, 65.22839
359.0312, 74.42029
359.5133, 79.74097
359.9954, 82.06628
360.4775, 84.25269
360.9596, 87.34485
361.4417, 90.94592
361.9239, 94.84094
362.4060, 98.96313
362.8881, 103.4645
363.3702, 109.2036
363.8523, 115.2040
364.3344, 119.9679
364.8166, 121.6064
365.2987, 123.3127
365.7808, 126.2501
366.2629, 130.6605
366.7450, 135.3026
367.2271, 140.8652
367.7093, 146.1707
368.1914, 150.1890
368.6735, 151.6400
369.1556, 153.2087
369.6377, 155.1667
370.1198, 157.5309
370.6020, 160.0834
371.0841, 164.2866
371.5662, 167.2852
372.0483, 167.3734
372.5304, 162.8248
373.0125, 158.5880
373.4947, 154.3850
373.9768, 150.6616
374.4589, 148.6807
374.9410, 149.2140
375.4231, 149.9585
375.9052, 150.0792
376.3874, 149.5132
376.8695, 148.8304
377.3516, 148.1145
377.8337, 147.2303
378.3158, 145.6538
378.7979, 143.1136
379.2801, 142.0580
379.7622, 143.6422
380.2443, 147.1824
380.7264, 149.6561
381.2085, 150.8671
381.6906, 152.1108
382.1728, 154.5354
382.6549, 158.0348
383.1370, 161.6033
383.6191, 165.1462
384.1012, 168.6625
384.5833, 171.3506
385.0655, 173.5582
385.5476, 178.2667
386.0297, 189.5693
386.5118, 204.0319
386.9939, 215.4518
387.4760, 223.1315
387.9582, 230.1176
388.4403, 239.0197
388.9224, 249.2535
389.4045, 259.7194
389.8866, 268.8934
390.3687, 278.8679
390.8509, 292.5635
391.3330, 309.9106
391.8151, 326.1799
392.2972, 336.8491
392.7793, 345.1218
393.2614, 354.5189
393.7436, 367.6688
394.2257, 379.5889
394.7078, 386.9371
395.1899, 391.2406
395.6720, 396.5588
396.1541, 407.2015
396.6363, 416.9827
397.1184, 422.6798
397.6005, 422.9319
398.0826, 422.1072
398.5647, 423.2690
399.0468, 423.0112
399.5290, 417.0986
400.0111, 400.2014
400.4932, 382.8604
400.9753, 366.5486
401.4574, 351.2175
401.9395, 336.7867
402.4217, 324.3866
402.9038, 311.6191
403.3859, 296.4888
403.8680, 277.5142
404.3501, 260.1404
404.8322, 245.4451
405.3144, 232.2871
405.7965, 217.5793
406.2786, 200.3608
406.7607, 184.5835
407.2428, 172.4639
407.7249, 164.0889
408.2071, 155.2166
408.6892, 145.5830
409.1713, 136.1084
409.6534, 128.2832
410.1355, 122.0295
410.6176, 115.2251
411.0998, 106.6055
411.5819, 97.38257
412.0640, 90.79810
412.5461, 86.80908
413.0282, 83.20850
413.5103, 77.51562
413.9925, 71.10718
414.4746, 67.31201
414.9567, 67.47583
415.4388, 67.95044
415.9209, 63.63281
416.4030, 56.55151
416.8852, 51.71533
417.3673, 54.52856
417.8494, 58.76562
418.3315, 59.01538
418.8136, 54.88892
419.2957, 50.10840
419.7779, 45.25171
420.2600, 41.39478
420.7421, 39.65063
421.2242, 42.91919
421.7063, 45.67920
422.1884, 46.39868
422.6706, 45.27319
423.1527, 43.16797
423.6348, 39.12476
424.1169, 35.08984
424.5990, 32.00293
425.0811, 30.34619
425.5633, 28.72803
426.0454, 27.33203
426.5275, 25.85254
427.0096, 23.76440
427.4917, 19.42310
427.9738, 17.06250
428.4560, 18.20068
428.9381, 22.66577
429.4202, 25.69800
429.9023, 26.75195
430.3844, 27.19507
430.8665, 28.25684
431.3487, 30.33838
431.8308, 30.17285
432.3129, 26.70532
432.7950, 21.82300
433.2771, 19.76123
433.7592, 20.61230
434.2414, 21.28613
434.7235, 19.75513
435.2056, 16.78174
435.6877, 15.73535
436.1698, 16.69775
436.6519, 18.18481
437.1341, 18.76611
437.6162, 18.66162
438.0983, 18.66846
438.5804, 19.48364
439.0625, 19.82153
439.5446, 18.08252
440.0268, 14.57129
440.5089, 10.35400
440.9910, 4.843018
441.4731, 0.3125000
441.9552, 3.511963
442.4373, 4.362793
442.9195, 4.500244
443.4016, 3.797607
443.8837, 3.130859
444.3658, 3.544189
444.8479, 7.182129
445.3300, 10.13037
445.8122, 10.96045
446.2943, 9.848633
446.7764, 8.390869
447.2585, 4.923828
447.7406, 2.636475
448.2227, 3.499023
448.7049, 11.06152
449.1870, 14.92212
449.6691, 13.40796
450.1512, 9.020264
450.6333, 5.736084
451.1154, 3.866211
451.5976, 2.288086
452.0797, 0.5515140
452.5618, 1.262207
453.0439, 1.352295
453.5260, 0.8222660
454.0081, 3.262451
454.4903, 4.202881
454.9724, 3.689941
455.4545, 3.787842
455.9366, 5.007080
456.4187, 6.439209
456.9008, 6.523682
457.3830, 5.338135
457.8651, 3.927979
458.3472, 2.410645
458.8293, 1.037598
459.3114, 0.6220700
459.7935, 1.172852
460.2757, 0.8569340
460.7578, 2.509033
461.2399, 7.395508
461.7220, 11.70972
462.2041, 15.13525
462.6862, 17.61011
463.1684, 18.42065
463.6505, 18.25024
464.1326, 18.58154
464.6147, 20.42480
465.0968, 22.57617
465.5789, 24.57080
466.0611, 26.47070
466.5432, 27.32788
467.0253, 24.68750
467.5074, 22.05811
467.9895, 22.38379
468.4716, 29.90137
468.9538, 35.21997
469.4359, 36.96606
469.9180, 36.09766
470.4001, 35.57446
470.8822, 35.42163
471.3643, 35.63184
471.8465, 36.31299
472.3286, 37.55615
472.8107, 38.94604
473.2928, 40.81348
473.7749, 42.00830
474.2570, 40.60352
474.7392, 36.65649
475.2213, 33.36914
475.7034, 31.24634
476.1855, 30.38745
476.6676, 31.64380
477.1497, 34.82153
477.6319, 37.79810
478.1140, 39.12305
478.5961, 39.49927
479.0782, 40.10620
479.5603, 41.01367
480.0424, 41.79370
480.5246, 42.54419
481.0067, 42.81470
481.4888, 41.91406
481.9709, 37.98047
482.4530, 34.71289
482.9352, 34.54785
483.4173, 36.67749
483.8994, 38.55273
484.3815, 40.09399
484.8636, 40.55859
485.3457, 39.38721
485.8279, 36.17993
486.3100, 32.92505
486.7921, 28.80688
487.2742, 25.21387
487.7563, 23.70435
488.2384, 26.00977
488.7206, 27.45410
489.2027, 26.89819
489.6848, 25.36768
490.1669, 26.48145
490.6490, 31.11670
491.1311, 34.63159
491.6133, 34.23096
492.0954, 30.05322
492.5775, 26.83105
493.0596, 24.55566
493.5417, 23.25854
494.0238, 23.45532
494.5060, 24.84839
494.9881, 25.82983
495.4702, 25.70752
495.9523, 25.29712
496.4344, 25.27905
496.9165, 25.83618
497.3987, 27.57129
497.8808, 33.42334
498.3629, 39.12354
498.8450, 38.73535
499.3271, 31.40942
499.8092, 26.94775
500.2914, 34.27661
500.7735, 45.40210
501.2556, 52.96802
501.7377, 51.05176
502.2198, 50.06421
502.7019, 53.58765
503.1841, 59.60327
503.6662, 62.74072
504.1483, 60.51025
504.6304, 57.98193
505.1125, 56.48267
505.5946, 55.94702
506.0768, 56.06860
506.5589, 56.49463
507.0410, 57.26099
507.5231, 58.60059
508.0052, 60.71802
508.4873, 63.70898
508.9695, 67.66919
509.4516, 71.92212
509.9337, 75.02295
510.4158, 77.01611
510.8979, 78.99463
511.3800, 81.67188
511.8622, 84.50830
512.3443, 86.46973
512.8264, 87.57153
513.3085, 88.26685
513.7906, 88.13916
514.2728, 88.02930
514.7549, 89.46631
515.2370, 93.48560
515.7191, 97.01685
516.2012, 97.96265
516.6833, 97.20459
517.1655, 96.15527
517.6476, 95.33813
518.1297, 94.23340
518.6118, 91.63281
519.0939, 87.83984
519.5760, 87.40430
520.0582, 95.29761
520.5403, 102.8511
521.0224, 106.4050
521.5045, 105.4612
521.9866, 101.5522
522.4688, 92.32202
522.9509, 82.68628
523.4330, 79.41870
523.9151, 83.83325
524.3972, 87.38989
524.8793, 88.10767
525.3615, 86.79761
525.8436, 85.56787
526.3257, 84.45996
526.8078, 83.14136
527.2899, 81.66602
527.7720, 79.84595
528.2542, 77.04419
528.7363, 73.22070
529.2184, 69.23657
529.7005, 66.42529
530.1826, 63.69800
530.6647, 59.30859
531.1469, 51.26978
531.6290, 43.99731
532.1111, 39.73462
532.5932, 37.98511
533.0753, 37.75098
533.5574, 41.25928
534.0396, 43.81714
534.5217, 43.63306
535.0038, 40.44873
535.4859, 36.93896
535.9680, 32.28125
536.4501, 28.04517
536.9323, 25.19019
537.4144, 24.26880
537.8965, 23.20850
538.3786, 21.82300
538.8607, 20.55688
539.3428, 20.17651
539.8250, 20.80933
540.3071, 21.17163
540.7892, 21.04468
541.2713, 20.37378
541.7534, 18.84985
542.2355, 16.46387
542.7177, 13.07568
543.1998, 6.887451
543.6819, 0.3352050
544.1640, 2.231934
544.6461, 0.3613280
545.1282, 1.926270
545.6104, 2.000244
546.0925, 0.7983400
546.5746, 0.7822270
547.0567, 4.150146
547.5388, 5.639893
548.0209, 1.983643
548.5031, 4.292725
548.9852, 7.795166
549.4673, 4.611084
549.9494, 1.801025
550.4315, 1.489258
550.9136, 3.666504
551.3958, 4.210693
551.8779, 1.849365
552.3600, 5.9326001E-02
552.8421, 2.019531
553.3242, 8.515137
553.8063, 10.98315
554.2885, 8.381104
554.7706, 3.660400
555.2527, 0.1452640
555.7348, 2.146973
556.2169, 3.268555
556.6990, 3.256104
557.1812, 2.217285
557.6633, 0.4189450
558.1454, 4.229980
558.6275, 7.490234
559.1096, 8.402344
559.5917, 8.761963
560.0739, 10.47388
560.5560, 13.78247
561.0381, 15.66333
561.5202, 13.44849
562.0023, 10.14722
562.4844, 7.857666
562.9666, 6.149414
563.4487, 6.770996
563.9308, 11.91455
564.4129, 18.44873
564.8950, 21.29834
565.3771, 18.44165
565.8593, 16.12012
566.3414, 15.67896
566.8235, 16.80029
567.3056, 19.12207
567.7877, 22.91675
568.2698, 25.00952
568.7520, 21.42163
569.2341, 14.28247
569.7162, 12.94189
570.1983, 18.07910
570.6804, 23.80225
571.1625, 23.82031
571.6447, 20.90479
572.1268, 19.61328
572.6089, 21.76147
573.0910, 24.29126
573.5731, 25.43286
574.0552, 25.43213
574.5374, 25.18823
575.0195, 24.93213
575.5016, 24.80713
575.9837, 24.82202
576.4658, 24.99268
576.9479, 25.57886
577.4301, 26.46680
577.9122, 27.87305
578.3943, 30.01392
578.8764, 32.94214
579.3585, 36.48682
579.8406, 41.31152
580.3228, 45.25928
580.8049, 44.99414
581.2870, 40.81055
581.7691, 39.04932
582.2512, 41.18433
582.7333, 45.19312
583.2155, 48.67554
583.6975, 51.41016
584.1796, 53.44189
584.6617, 52.65259
585.1439, 52.42725
585.6260, 56.87085
586.1081, 65.07104
586.5902, 72.35815
587.0723, 77.04370
587.5544, 79.32764
588.0366, 79.12769
588.5187, 75.75220
589.0008, 73.78320
589.4829, 74.73413
589.9650, 76.69556
590.4471, 78.75684
590.9293, 82.96777
591.4114, 82.29590
591.8935, 74.42529
592.3756, 63.57324
592.8577, 57.22070
593.3398, 55.52417
593.8220, 55.92090
594.3041, 58.98975
594.7862, 62.54663
595.2683, 60.06226
595.7504, 52.42090
596.2325, 46.34741
596.7147, 49.00415
597.1968, 53.95215
597.6789, 52.33447
598.1610, 43.39795
598.6431, 37.26660
599.1252, 44.01758
599.6074, 53.39014
600.0895, 56.75537
600.5716, 48.35107
601.0537, 41.31714
601.5358, 37.96582
602.0179, 36.82251
602.5001, 36.39478
602.9822, 37.06177
603.4643, 37.28540
603.9464, 36.37598
604.4285, 34.95532
604.9106, 36.10425
605.3928, 40.27026
605.8749, 42.80713
606.3570, 39.47510
606.8391, 32.50391
607.3212, 30.15747
607.8033, 32.21484
608.2855, 34.44312
608.7676, 32.30396
609.2497, 28.87573
609.7318, 28.71509
610.2139, 33.51123
610.6960, 36.85840
611.1782, 32.63818
611.6603, 26.28931
612.1424, 23.64185
612.6245, 32.92407
613.1066, 37.53149
613.5887, 31.61646
614.0709, 20.39551
614.5530, 14.79028
615.0351, 18.31543
615.5172, 19.80322
615.9993, 14.52222
616.4814, 4.764160
616.9636, 5.029785
617.4457, 16.36816
617.9278, 25.80273
618.4099, 21.50684
618.8920, 9.215820
619.3741, 6.172363
619.8563, 13.15771
620.3384, 20.03516
620.8205, 17.16943
621.3026, 9.999512
621.7847, 5.117676
622.2668, 4.526855
622.7490, 4.630371
623.2311, 4.610352
623.7132, 4.111328
624.1953, 2.699219
624.6774, 1.635254
625.1595, 4.490234
625.6417, 4.993652
626.1238, 3.707520
626.6059, 2.104980
627.0880, 0.3085940
627.5701, 1.738281
628.0522, 1.263672
628.5344, 0.6479490
629.0165, 1.864258
629.4986, 2.381348
629.9807, 2.441895
630.4628, 2.799316
630.9449, 2.689941
631.4271, 0.2387700
631.9092, 6.251953
632.3913, 11.45654
632.8734, 12.22021
633.3555, 11.04639
633.8376, 10.70605
634.3198, 12.32715
634.8019, 13.51025
635.2840, 13.32520
635.7661, 12.35596
636.2482, 11.56445
636.7303, 11.05127
637.2125, 10.58154
637.6946, 10.39648
638.1767, 10.15234
638.6588, 8.967773
639.1409, 6.890137
639.6230, 4.047852
640.1052, 0.1030270
640.5873, 4.234863
641.0694, 7.032715
641.5515, 8.254395
642.0336, 8.620605
642.5157, 8.130371
642.9979, 7.186035
643.4800, 6.822754
643.9621, 7.090820
644.4442, 5.781738
644.9263, 0.9384770
645.4084, 5.568848
645.8906, 12.18408
646.3727, 18.72070
646.8548, 25.16016
647.3369, 32.58936
647.8190, 39.01514
648.3011, 41.16650
648.7833, 37.05469
649.2654, 35.12695
649.7475, 36.80127
650.2296, 41.09521
650.7117, 46.49512
651.1938, 53.08301
651.6760, 60.57031
652.1581, 69.67480
652.6402, 79.22168
653.1223, 88.18652
653.6044, 96.16211
654.0865, 102.4307
654.5687, 104.7246
655.0508, 106.5469
655.5329, 109.8550
656.0150, 114.7529
656.4971, 121.7397
656.9792, 132.5000
657.4614, 144.2446
657.9435, 155.1455
658.4256, 164.1484
658.9077, 175.9331
659.3898, 191.3135
659.8719, 207.9077
660.3541, 222.7769
660.8362, 235.9219
661.3183, 251.7417
661.8004, 271.0410
662.2825, 291.2886
662.7646, 307.9990
663.2468, 322.9702
663.7289, 340.4941
664.2110, 361.4224
664.6931, 386.3354
665.1752, 416.7627
665.6573, 451.4751
666.1395, 488.2949
