##NAMES=Fluorapophyllite-(K)
##RRUFFID=R050084
##IDEAL CHEMISTRY=KCa_4_Si_8_O_20_F&#183;8H_2_O
##LOCALITY=near Ahmednagar, Maharashtra, India
##OWNER=RRUFF
##SOURCE=Rock Currier
##DESCRIPTION=Greenish-white prismatic single crystal associated with scolecite
##STATUS=The identification of this mineral has been confirmed by X-ray diffraction and chemical analysis
##URL=rruff.info/R050084
##MEASURED CHEMISTRY=(K_0.98_Na_0.02_)Ca_4.00_Si_8.00_O_20_F_1.00_Â·8H_2_O
129.6975, 0.0000000E+00
130.1796, 51.84912
130.6617, 151.0128
131.1439, 265.0638
131.6260, 382.8793
132.1081, 496.7251
132.5902, 583.4973
133.0723, 645.5740
133.5544, 683.1149
134.0366, 688.7372
134.5187, 667.9574
135.0008, 626.3490
135.4829, 571.3190
135.9650, 538.0218
136.4471, 508.6677
136.9293, 429.1481
137.4114, 349.0985
137.8935, 282.1763
138.3756, 227.0549
138.8577, 179.8523
139.3398, 138.3828
139.8220, 102.6463
140.3041, 68.11230
140.7862, 30.40759
141.2683, 2.417236
141.7504, 29.61804
142.2325, 49.49457
142.7147, 57.35980
143.1968, 48.75568
143.6789, 22.85327
144.1610, 7.725647
144.6431, 35.98114
145.1252, 73.80157
145.6074, 130.2510
146.0895, 204.1744
146.5716, 286.4397
147.0537, 371.6252
147.5358, 459.5865
148.0179, 544.5038
148.5001, 626.8242
148.9822, 705.7722
149.4643, 780.3502
149.9464, 851.0858
150.4285, 920.9187
150.9106, 999.2163
151.3928, 1081.153
151.8749, 1132.667
152.3570, 1136.079
152.8391, 1117.625
153.3212, 1095.192
153.8033, 1069.614
154.2855, 1050.730
154.7676, 1045.628
155.2497, 1054.188
155.7318, 1075.680
156.2139, 1111.825
156.6960, 1160.095
157.1782, 1216.778
157.6603, 1280.978
158.1424, 1357.722
158.6245, 1458.122
159.1066, 1574.657
159.5887, 1690.477
160.0709, 1818.913
160.5530, 1937.634
161.0351, 2015.225
161.5172, 2050.376
161.9993, 2044.781
162.4814, 1986.142
162.9636, 1888.606
163.4457, 1768.407
163.9278, 1616.911
164.4099, 1450.321
164.8920, 1298.475
165.3741, 1163.219
165.8563, 1038.810
166.3384, 920.0216
166.8205, 809.0031
167.3026, 711.2036
167.7847, 630.1379
168.2668, 562.9048
168.7490, 502.0000
169.2311, 444.4266
169.7132, 400.4756
170.1953, 378.2219
170.6774, 371.1593
171.1595, 370.6548
171.6417, 374.5887
172.1238, 381.8109
172.6059, 388.5302
173.0880, 391.6040
173.5701, 401.0651
174.0522, 420.7070
174.5344, 448.7783
175.0165, 483.3145
175.4986, 524.5485
175.9807, 571.0422
176.4628, 618.1876
176.9449, 661.0295
177.4271, 714.8538
177.9092, 781.6534
178.3913, 861.6453
178.8734, 954.8052
179.3555, 1061.245
179.8376, 1182.087
180.3197, 1322.228
180.8019, 1485.466
181.2840, 1663.568
181.7661, 1856.520
182.2482, 2059.342
182.7303, 2269.784
183.2124, 2493.185
183.6946, 2713.650
184.1767, 2888.350
184.6588, 3020.224
185.1409, 3091.085
185.6230, 3101.862
186.1051, 3059.520
186.5873, 2967.184
187.0694, 2822.268
187.5515, 2638.375
188.0336, 2446.785
188.5157, 2230.746
188.9978, 2042.245
189.4800, 1891.201
189.9621, 1769.601
190.4442, 1668.165
190.9263, 1583.893
191.4084, 1517.287
191.8905, 1469.769
192.3727, 1440.744
192.8548, 1434.224
193.3369, 1458.392
193.8190, 1496.714
194.3011, 1532.521
194.7832, 1559.607
195.2654, 1586.955
195.7475, 1635.265
196.2296, 1718.861
196.7117, 1796.855
197.1938, 1856.770
197.6759, 1912.231
198.1581, 1976.105
198.6402, 2053.406
199.1223, 2137.740
199.6044, 2216.286
200.0865, 2281.108
200.5686, 2359.792
201.0508, 2452.910
201.5329, 2561.419
202.0150, 2685.114
202.4971, 2823.208
202.9792, 2972.426
203.4613, 3125.592
203.9435, 3271.651
204.4256, 3448.345
204.9077, 3670.233
205.3898, 3909.191
205.8719, 4151.021
206.3540, 4391.053
206.8362, 4627.503
207.3183, 4865.489
207.8004, 5122.287
208.2825, 5328.290
208.7646, 5496.948
209.2467, 5612.886
209.7289, 5665.299
210.2110, 5652.805
210.6931, 5580.358
211.1752, 5446.181
211.6573, 5235.620
212.1395, 5018.067
212.6216, 4793.545
213.1037, 4563.898
213.5858, 4325.663
214.0679, 4082.548
214.5500, 3843.153
215.0322, 3612.383
215.5143, 3386.834
215.9964, 3198.610
216.4785, 3064.230
216.9606, 2950.263
217.4427, 2846.445
217.9249, 2752.466
218.4070, 2671.786
218.8891, 2608.344
219.3712, 2562.502
219.8533, 2520.958
220.3354, 2481.843
220.8176, 2449.292
221.2997, 2427.676
221.7818, 2413.635
222.2639, 2399.887
222.7460, 2380.338
223.2281, 2356.466
223.7103, 2345.898
224.1924, 2355.104
224.6745, 2372.284
225.1566, 2406.651
225.6387, 2445.200
226.1208, 2469.404
226.6030, 2468.006
227.0851, 2445.394
227.5672, 2420.852
228.0493, 2407.922
228.5314, 2372.225
229.0135, 2300.304
229.4957, 2207.285
229.9778, 2109.486
230.4599, 2014.172
230.9420, 1919.045
231.4241, 1817.363
231.9062, 1706.637
232.3884, 1593.553
232.8705, 1479.587
233.3526, 1364.173
233.8347, 1242.547
234.3168, 1114.133
234.7989, 987.0056
235.2811, 874.8973
235.7632, 776.8865
236.2453, 697.0234
236.7274, 648.4228
237.2095, 606.0168
237.6916, 551.0365
238.1738, 480.8734
238.6559, 408.0903
239.1380, 347.6037
239.6201, 301.2346
240.1022, 260.4769
240.5843, 227.2157
241.0665, 197.7506
241.5486, 170.8297
242.0307, 146.1177
242.5128, 123.6349
242.9949, 103.9091
243.4770, 87.18787
243.9592, 69.85602
244.4413, 51.06348
244.9234, 32.24475
245.4055, 13.30371
245.8876, 5.328125
246.3697, 22.66479
246.8519, 38.29865
247.3340, 52.24146
247.8161, 63.70630
248.2982, 73.14081
248.7803, 79.09363
249.2624, 81.02155
249.7446, 79.61511
250.2267, 75.44635
250.7088, 67.78479
251.1909, 58.67291
251.6730, 54.46472
252.1551, 57.79547
252.6373, 60.74097
253.1194, 64.24139
253.6015, 64.77087
254.0836, 56.72382
254.5657, 36.65491
255.0478, 12.79358
255.5300, 0.2620240
256.0121, 1.392761
256.4942, 0.9190060
256.9763, 16.49158
257.4584, 35.85321
257.9406, 51.70105
258.4227, 62.35522
258.9048, 73.72882
259.3869, 92.55011
259.8690, 119.1384
260.3511, 146.7850
260.8333, 176.6032
261.3154, 205.2108
261.7975, 228.8569
262.2796, 247.8867
262.7617, 268.7620
263.2438, 296.9094
263.7260, 331.3408
264.2081, 366.9395
264.6902, 406.9401
265.1723, 441.8476
265.6544, 466.1970
266.1365, 480.9501
266.6187, 487.9151
267.1008, 485.6332
267.5829, 476.5696
268.0650, 466.6202
268.5471, 457.2249
269.0292, 442.7742
269.5114, 416.4462
269.9935, 382.6792
270.4756, 347.7913
270.9577, 312.6655
271.4398, 277.7007
271.9219, 240.8261
272.4041, 201.7095
272.8862, 171.0971
273.3683, 159.3922
273.8504, 157.5742
274.3325, 147.1976
274.8146, 122.4354
275.2968, 98.13531
275.7789, 83.75482
276.2610, 78.08636
276.7431, 76.20013
277.2252, 76.60620
277.7073, 79.92450
278.1895, 87.64313
278.6716, 100.3527
279.1537, 113.3461
279.6358, 122.6199
280.1179, 131.5915
280.6000, 146.6387
281.0822, 169.6066
281.5643, 196.0659
282.0464, 220.0448
282.5285, 240.6643
283.0106, 268.5539
283.4927, 311.9861
283.9749, 358.7078
284.4570, 395.5209
284.9391, 422.2673
285.4212, 451.7739
285.9033, 495.5306
286.3854, 553.2366
286.8676, 604.4466
287.3497, 643.4147
287.8318, 682.1505
288.3139, 725.7615
288.7960, 773.9221
289.2781, 823.6528
289.7603, 872.5410
290.2424, 923.0282
290.7245, 985.0280
291.2066, 1065.113
291.6887, 1147.711
292.1708, 1234.810
292.6530, 1321.675
293.1351, 1403.354
293.6172, 1478.028
294.0993, 1545.491
294.5814, 1604.504
295.0635, 1649.986
295.5457, 1696.299
296.0278, 1753.789
296.5099, 1804.558
296.9920, 1836.638
297.4741, 1848.225
297.9562, 1843.594
298.4384, 1827.779
298.9205, 1802.101
299.4026, 1754.371
299.8847, 1670.150
300.3668, 1579.155
300.8489, 1487.580
301.3311, 1396.716
301.8131, 1307.136
302.2953, 1218.894
302.7774, 1132.366
303.2595, 1049.288
303.7416, 968.0432
304.2237, 891.6144
304.7058, 820.3933
305.1880, 753.8911
305.6701, 691.7933
306.1522, 634.0739
306.6343, 580.6136
307.1164, 531.3932
307.5985, 487.3248
308.0807, 445.9570
308.5628, 406.4453
309.0449, 370.4951
309.5270, 339.7059
310.0091, 313.5034
310.4912, 290.1852
310.9734, 268.6115
311.4555, 248.8856
311.9376, 231.4371
312.4197, 219.0680
312.9018, 207.0026
313.3839, 188.6561
313.8661, 166.4221
314.3482, 149.2679
314.8303, 143.5128
315.3124, 144.1053
315.7945, 142.1174
316.2766, 136.7595
316.7588, 133.5125
317.2409, 136.6359
317.7230, 143.4533
318.2051, 149.5259
318.6872, 153.9900
319.1693, 158.2251
319.6515, 162.6853
320.1336, 167.5856
320.6157, 173.9650
321.0978, 182.1766
321.5799, 191.9810
322.0620, 202.4520
322.5442, 212.5949
323.0263, 227.4602
323.5084, 254.4241
323.9905, 284.4511
324.4726, 304.5331
324.9547, 312.6263
325.4369, 318.0887
325.9190, 329.0750
326.4011, 346.4312
326.8832, 367.9972
327.3653, 398.0711
327.8474, 428.2297
328.3296, 451.8750
328.8117, 471.2779
329.2938, 493.9639
329.7759, 524.7635
330.2580, 561.4196
330.7401, 594.0674
331.2223, 621.9464
331.7044, 647.3444
332.1865, 667.0103
332.6686, 686.5527
333.1507, 714.0449
333.6328, 751.1901
334.1150, 789.9335
334.5971, 818.9517
335.0792, 837.3180
335.5613, 847.8859
336.0434, 847.8074
336.5255, 843.5834
337.0077, 837.7709
337.4898, 830.7103
337.9719, 822.1976
338.4540, 813.2391
338.9361, 802.9968
339.4182, 782.8599
339.9004, 747.6774
340.3825, 709.8278
340.8646, 673.5101
341.3467, 636.6962
341.8288, 596.3284
342.3109, 550.6450
342.7931, 503.3160
343.2752, 459.7703
343.7573, 420.3060
344.2394, 381.8055
344.7215, 342.0359
345.2036, 304.2820
345.6858, 270.7690
346.1679, 241.5555
346.6500, 215.5826
347.1321, 193.5464
347.6142, 174.2382
348.0963, 153.9119
348.5785, 131.6917
349.0606, 109.9051
349.5427, 89.21631
350.0248, 70.26288
350.5069, 55.70807
350.9890, 48.91016
351.4712, 44.32922
351.9533, 37.69232
352.4354, 29.27002
352.9175, 19.81891
353.3996, 8.218323
353.8817, 2.493286
354.3639, 2.785889
354.8460, 12.76263
355.3281, 24.90320
355.8102, 28.39142
356.2923, 26.68152
356.7744, 21.68823
357.2566, 14.34912
357.7387, 9.597290
358.2208, 13.80853
358.7029, 29.67816
359.1850, 39.42175
359.6671, 33.38611
360.1493, 31.63116
360.6314, 46.72955
361.1135, 73.03937
361.5956, 97.65924
362.0777, 113.0821
362.5598, 121.2894
363.0420, 128.9869
363.5241, 131.0984
364.0062, 141.5040
364.4883, 168.5179
364.9704, 199.3025
365.4525, 221.0768
365.9347, 231.9415
366.4168, 243.1403
366.8989, 269.8346
367.3810, 313.6359
367.8631, 348.6840
368.3452, 366.8120
368.8274, 384.6324
369.3095, 410.9194
369.7916, 443.5249
370.2737, 477.0453
370.7558, 510.2635
371.2379, 541.9152
371.7201, 571.1873
372.2022, 598.6994
372.6843, 617.7083
373.1664, 625.4858
373.6485, 621.9374
374.1306, 608.3275
374.6128, 583.6754
375.0949, 552.6017
375.5770, 517.3625
376.0591, 477.5982
376.5412, 430.5507
377.0233, 374.6836
377.5055, 319.0959
377.9876, 273.3234
378.4697, 238.7594
378.9518, 204.0424
379.4339, 165.5810
379.9160, 130.1939
380.3982, 103.2578
380.8803, 83.10352
381.3624, 64.97406
381.8445, 46.22116
382.3266, 27.92200
382.8087, 13.06525
383.2909, 4.745239
383.7730, 3.779510
384.2551, 13.52100
384.7372, 22.95389
385.2193, 30.82004
385.7014, 36.94977
386.1836, 42.28720
386.6657, 48.76089
387.1478, 56.77780
387.6299, 57.39435
388.1120, 43.12570
388.5941, 29.80978
389.0763, 21.89050
389.5584, 18.42456
390.0405, 18.49591
390.5226, 22.68784
391.0047, 27.32281
391.4868, 25.76294
391.9690, 17.25720
392.4511, 9.763977
392.9332, 6.006561
393.4153, 3.515228
393.8974, 0.5495000
394.3795, 2.976257
394.8617, 8.357269
395.3438, 17.78186
395.8259, 28.92963
396.3080, 37.86353
396.7901, 44.14871
397.2722, 49.69342
397.7544, 55.73688
398.2365, 62.11438
398.7186, 68.05682
399.2007, 74.75476
399.6828, 79.66919
400.1649, 79.55579
400.6471, 77.52304
401.1292, 79.00824
401.6113, 85.82892
402.0934, 95.55612
402.5755, 105.3136
403.0576, 117.2585
403.5398, 121.8343
404.0219, 108.6197
404.5040, 98.75568
404.9861, 106.1585
405.4682, 126.1792
405.9503, 145.7119
406.4325, 156.4976
406.9146, 160.6078
407.3967, 165.0016
407.8788, 169.6780
408.3609, 174.6519
408.8430, 179.4156
409.3252, 184.8006
409.8073, 191.5958
410.2894, 199.8852
410.7715, 208.9331
411.2536, 217.0020
411.7357, 224.8976
412.2179, 237.9471
412.7000, 258.7989
413.1821, 279.5177
413.6642, 291.0078
414.1463, 298.6652
414.6284, 313.6667
415.1106, 341.7711
415.5927, 373.0870
416.0748, 397.6066
416.5569, 419.1342
417.0390, 450.6644
417.5211, 497.6689
418.0033, 551.7632
418.4854, 599.9414
418.9675, 638.1625
419.4496, 683.9974
419.9317, 739.2463
420.4138, 800.7886
420.8960, 869.7153
421.3781, 943.6929
421.8602, 1016.167
422.3423, 1082.734
422.8244, 1146.035
423.3065, 1216.401
423.7887, 1287.394
424.2708, 1377.533
424.7529, 1493.950
425.2350, 1624.758
425.7171, 1757.123
426.1992, 1891.175
426.6814, 2039.157
427.1635, 2217.536
427.6456, 2424.900
428.1277, 2627.349
428.6098, 2822.342
429.0919, 3016.830
429.5741, 3222.319
430.0562, 3428.750
430.5383, 3625.946
431.0204, 3828.940
431.5025, 3984.697
431.9846, 4055.976
432.4668, 4044.666
432.9489, 3950.422
433.4310, 3765.559
433.9131, 3522.735
434.3952, 3245.758
434.8773, 2930.627
435.3595, 2639.115
435.8416, 2381.977
436.3237, 2143.801
436.8058, 1909.985
437.2879, 1686.807
437.7701, 1489.024
438.2522, 1324.744
438.7343, 1187.934
439.2164, 1064.807
439.6985, 954.7716
440.1806, 860.6850
440.6628, 788.1499
441.1449, 724.0828
441.6270, 659.1061
442.1091, 593.7728
442.5912, 534.5143
443.0733, 487.3027
443.5555, 449.9203
444.0376, 414.0479
444.5197, 380.0432
445.0018, 348.0161
445.4839, 319.4478
445.9660, 293.6707
446.4482, 268.4848
446.9303, 242.9572
447.4124, 220.8450
447.8945, 204.6339
448.3766, 193.0742
448.8587, 184.8715
449.3409, 180.4068
449.8230, 177.6429
450.3051, 174.4694
450.7872, 170.9352
451.2693, 169.4331
451.7514, 171.0018
452.2336, 173.3200
452.7157, 176.0048
453.1978, 178.8185
453.6799, 180.8168
454.1620, 181.8508
454.6441, 183.7056
455.1263, 188.8801
455.6084, 197.8772
456.0905, 207.2340
456.5726, 215.4697
457.0547, 225.5902
457.5368, 239.9856
458.0190, 256.5123
458.5011, 271.2451
458.9832, 282.1036
459.4653, 292.9335
459.9474, 312.3157
460.4295, 340.4392
460.9117, 358.6906
461.3938, 360.8381
461.8759, 355.5010
462.3580, 348.7049
462.8401, 340.8505
463.3222, 334.1201
463.8044, 334.3174
464.2865, 331.7667
464.7686, 315.9304
465.2507, 289.2995
465.7328, 261.2028
466.2149, 235.0269
466.6971, 211.9281
467.1792, 194.9586
467.6613, 189.0801
468.1434, 178.8509
468.6255, 160.4548
469.1076, 141.0942
469.5898, 126.9014
470.0719, 115.8981
470.5540, 100.3106
471.0361, 73.64392
471.5182, 43.14709
472.0003, 32.22455
472.4825, 50.77100
472.9646, 62.05377
473.4467, 51.95428
473.9288, 36.47778
474.4109, 24.28009
474.8930, 16.15924
475.3752, 10.64124
475.8573, 7.219788
476.3394, 5.729614
476.8215, 5.848999
477.3036, 7.572937
477.7857, 11.26575
478.2679, 17.38336
478.7500, 25.36383
479.2321, 34.07330
479.7142, 43.52264
480.1963, 53.32489
480.6784, 63.93127
481.1606, 74.50427
481.6427, 83.91504
482.1248, 92.38806
482.6069, 101.6172
483.0890, 113.3652
483.5711, 126.4886
484.0533, 134.9103
484.5354, 137.7187
485.0175, 136.9219
485.4996, 130.1975
485.9817, 122.3246
486.4638, 118.2829
486.9460, 117.9366
487.4281, 115.6210
487.9102, 105.2424
488.3923, 89.56616
488.8744, 77.92566
489.3565, 71.51263
489.8387, 62.44263
490.3208, 44.46375
490.8029, 22.51971
491.2850, 6.849670
491.7671, 1.388062
492.2492, 7.013611
492.7314, 9.830078
493.2135, 11.82520
493.6956, 15.14545
494.1777, 20.00940
494.6598, 26.02533
495.1419, 33.36694
495.6241, 41.28308
496.1062, 44.98541
496.5883, 42.64520
497.0704, 38.29095
497.5525, 29.22101
498.0346, 20.49457
498.5168, 17.57831
498.9989, 20.23053
499.4810, 22.46051
499.9631, 19.54034
500.4452, 12.22925
500.9273, 2.785461
501.4095, 9.566772
501.8916, 20.95447
502.3737, 30.38696
502.8558, 37.38782
503.3379, 41.29462
503.8200, 41.59454
504.3022, 40.79218
504.7843, 36.99457
505.2664, 34.19232
505.7485, 38.09857
506.2306, 48.39880
506.7127, 59.68982
507.1949, 68.51257
507.6770, 75.34674
508.1591, 82.09290
508.6412, 86.76068
509.1233, 94.49695
509.6054, 108.9047
510.0876, 123.7542
510.5697, 136.0526
511.0518, 144.6180
511.5339, 147.4806
512.0161, 140.8658
512.4982, 129.0409
512.9803, 123.9893
513.4624, 126.6250
513.9445, 130.7343
514.4266, 134.5172
514.9088, 138.5178
515.3909, 144.9442
515.8730, 154.4843
516.3551, 158.1510
516.8372, 148.8447
517.3193, 135.7499
517.8015, 126.5831
518.2836, 121.4100
518.7657, 118.2877
519.2478, 116.5380
519.7299, 114.7065
520.2120, 108.4805
520.6942, 89.17493
521.1763, 82.47211
521.6584, 97.82489
522.1405, 115.3472
522.6226, 127.5312
523.1047, 132.9876
523.5869, 129.4234
524.0690, 112.2767
524.5511, 93.08038
525.0332, 93.38287
525.5153, 113.0406
525.9974, 128.7581
526.4796, 133.7049
526.9617, 135.2371
527.4438, 140.8228
527.9259, 149.9986
528.4080, 159.3206
528.8901, 169.8449
529.3723, 178.8940
529.8544, 181.3364
530.3365, 181.9108
530.8186, 191.4142
531.3007, 213.2811
531.7828, 236.9124
532.2650, 246.3001
532.7471, 237.9806
533.2292, 237.0963
533.7113, 251.7670
534.1934, 264.9972
534.6755, 268.9402
535.1577, 269.5928
535.6398, 276.8656
536.1219, 294.5343
536.6040, 310.7244
537.0861, 311.9020
537.5682, 302.4265
538.0504, 297.8919
538.5325, 301.1004
539.0146, 301.2470
539.4967, 288.3019
539.9788, 266.1304
540.4609, 254.2950
540.9431, 264.5865
541.4252, 267.7655
541.9073, 253.2607
542.3894, 232.0724
542.8715, 213.1768
543.3536, 198.2664
543.8358, 186.0804
544.3179, 175.7260
544.8000, 167.1296
545.2821, 159.9602
545.7642, 154.1703
546.2463, 150.0386
546.7285, 152.4924
547.2106, 152.9012
547.6927, 140.2423
548.1748, 116.1508
548.6569, 100.6099
549.1390, 109.4112
549.6211, 125.5515
550.1032, 131.6265
550.5853, 128.8572
551.0674, 123.2238
551.5496, 116.8055
552.0317, 109.2916
552.5138, 99.51825
552.9959, 84.36383
553.4780, 77.74243
553.9601, 86.46637
554.4423, 96.06598
554.9244, 100.0805
555.4065, 101.3707
555.8886, 104.8676
556.3707, 112.2557
556.8528, 120.2440
557.3350, 123.5104
557.8171, 123.5248
558.2992, 130.9631
558.7813, 148.6987
559.2634, 167.7852
559.7455, 181.1711
560.2277, 190.9980
560.7098, 204.6288
561.1919, 226.2690
561.6740, 244.5576
562.1561, 251.2361
562.6382, 255.6658
563.1204, 267.2577
563.6025, 287.0447
564.0846, 312.3887
564.5667, 342.3722
565.0488, 375.2047
565.5309, 403.3208
566.0131, 422.4948
566.4952, 447.5795
566.9773, 484.9272
567.4594, 526.2767
567.9415, 566.3844
568.4236, 605.8217
568.9058, 648.3076
569.3879, 696.3259
569.8700, 747.5162
570.3521, 800.7290
570.8342, 855.5035
571.3163, 909.2040
571.7985, 960.6301
572.2806, 1015.031
572.7627, 1079.036
573.2448, 1154.135
573.7269, 1226.927
574.2090, 1294.118
574.6912, 1364.038
575.1733, 1441.604
575.6554, 1521.437
576.1375, 1598.001
576.6196, 1670.141
577.1017, 1739.914
577.5839, 1806.844
578.0660, 1873.023
578.5481, 1946.837
579.0302, 2029.194
579.5123, 2111.445
579.9944, 2190.800
580.4766, 2266.449
580.9587, 2336.887
581.4408, 2404.287
581.9229, 2460.729
582.4050, 2511.562
582.8871, 2544.704
583.3693, 2546.178
583.8514, 2524.186
584.3335, 2498.212
584.8156, 2477.299
585.2977, 2450.072
585.7798, 2395.836
586.2620, 2312.543
586.7441, 2227.921
587.2262, 2146.369
587.7083, 2057.025
588.1904, 1945.503
588.6725, 1824.090
589.1547, 1712.587
589.6368, 1613.920
590.1189, 1523.112
590.6010, 1444.430
591.0831, 1368.398
591.5652, 1281.440
592.0474, 1184.177
592.5295, 1086.846
593.0116, 995.5762
593.4937, 912.0954
593.9758, 841.9079
594.4579, 792.7610
594.9401, 739.2850
595.4222, 673.0541
595.9043, 608.2675
596.3864, 551.0425
596.8685, 501.1940
597.3506, 457.7737
597.8328, 422.0822
598.3149, 389.8887
598.7970, 358.3010
599.2791, 327.0328
599.7612, 294.9188
