##NAMES=Fluorapophyllite-(K)
##RRUFFID=R050021
##IDEAL CHEMISTRY=KCa_4_Si_8_O_20_F&#183;8H_2_O
##LOCALITY=Poona, Maharashtra State, India
##OWNER=RRUFF
##SOURCE=Eugene Schlepp
##DESCRIPTION=Colorless tetragonal prisms
##STATUS=The identification of this mineral has been confirmed by X-ray diffraction and chemical analysis
##URL=rruff.info/R050021
##MEASURED CHEMISTRY=(K_0.98_Na_0.02_)_Σ=1_Ca_4.00_Si_8.00_O_20_(F_0.84_(OH)_0.16_)_Σ=1_·8H_2_O
130.3772, 0.0000000E+00
130.8593, 3.482910
131.3414, 14.55688
131.8235, 73.72168
132.3056, 165.1082
132.7877, 275.3662
133.2699, 398.3689
133.7520, 533.8616
134.2341, 654.2258
134.7162, 735.2131
135.1983, 777.0740
135.6804, 846.1716
136.1626, 936.7253
136.6447, 1059.306
137.1268, 1248.835
137.6089, 1522.567
138.0910, 1795.914
138.5731, 2039.836
139.0553, 2277.174
139.5374, 2396.198
140.0195, 2372.228
140.5016, 2220.346
140.9837, 1983.637
141.4658, 1613.501
141.9480, 1231.298
142.4301, 919.1184
142.9122, 688.8516
143.3943, 504.7913
143.8764, 367.0122
144.3585, 275.9031
144.8407, 205.8630
145.3228, 167.3401
145.8049, 142.3494
146.2870, 114.7041
146.7691, 81.42700
147.2512, 49.53784
147.7334, 16.48413
148.2155, 23.31445
148.6976, 40.12891
149.1797, 28.62109
149.6618, 4.459229
150.1439, 49.78540
150.6261, 123.6626
151.1082, 194.5312
151.5903, 253.7708
152.0724, 297.6965
152.5545, 337.4028
153.0366, 374.7993
153.5188, 408.1636
154.0009, 433.9910
154.4830, 448.6851
154.9651, 458.3130
155.4472, 464.9148
155.9293, 461.2830
156.4115, 467.4885
156.8936, 481.0000
157.3757, 505.8430
157.8578, 552.2334
158.3399, 628.9023
158.8221, 724.5791
159.3042, 832.6091
159.7863, 950.8833
160.2684, 1081.767
160.7505, 1215.459
161.2326, 1357.000
161.7148, 1536.102
162.1969, 1785.178
162.6790, 2071.463
163.1611, 2359.939
163.6432, 2632.493
164.1253, 2912.395
164.6075, 3241.065
165.0896, 3620.916
165.5717, 3934.900
166.0538, 4153.808
166.5359, 4258.700
167.0180, 4225.516
167.5002, 3988.362
167.9823, 3645.198
168.4644, 3246.071
168.9465, 2784.896
169.4286, 2335.541
169.9107, 1935.425
170.3929, 1588.042
170.8750, 1290.344
171.3571, 1056.640
171.8392, 868.7896
172.3213, 709.3647
172.8034, 578.1592
173.2856, 474.4199
173.7677, 405.6599
174.2498, 366.5068
174.7319, 339.5500
175.2140, 325.0349
175.6961, 313.4922
176.1783, 289.1685
176.6604, 245.9519
177.1425, 195.5601
177.6246, 148.8325
178.1067, 106.5186
178.5888, 70.35181
179.0710, 44.75708
179.5531, 26.79053
180.0352, 10.20557
180.5173, 7.645020
180.9994, 23.40039
181.4815, 31.80713
181.9637, 32.95532
182.4458, 27.30835
182.9279, 14.65845
183.4100, 4.637451
183.8921, 29.47998
184.3742, 60.59375
184.8564, 96.64331
185.3385, 132.9175
185.8206, 169.4590
186.3027, 209.4705
186.7848, 258.8247
187.2669, 316.2397
187.7491, 374.2778
188.2312, 422.2300
188.7133, 468.7834
189.1954, 528.4241
189.6775, 601.6641
190.1596, 682.3032
190.6418, 758.4099
191.1239, 829.8662
191.6060, 920.3372
192.0881, 1048.328
192.5702, 1208.568
193.0524, 1355.565
193.5345, 1486.828
194.0166, 1610.682
194.4987, 1734.857
194.9808, 1858.898
195.4629, 1988.943
195.9451, 2128.969
196.4272, 2280.974
196.9093, 2427.421
197.3914, 2563.547
197.8735, 2698.837
198.3556, 2853.060
198.8378, 3027.301
199.3199, 3207.835
199.8020, 3391.010
200.2841, 3576.819
200.7662, 3751.927
201.2483, 3911.370
201.7305, 4063.553
202.2126, 4232.167
202.6947, 4422.269
203.1768, 4609.930
203.6589, 4774.575
204.1410, 4908.130
204.6232, 5065.393
205.1053, 5252.729
205.5874, 5466.109
206.0695, 5696.162
206.5516, 5948.810
207.0337, 6202.848
207.5159, 6455.064
207.9980, 6710.606
208.4801, 6920.702
208.9622, 7092.312
209.4443, 7213.485
209.9264, 7224.643
210.4086, 7119.333
210.8907, 6915.756
211.3728, 6616.131
211.8549, 6192.948
212.3370, 5756.912
212.8191, 5311.956
213.3013, 4864.786
213.7834, 4434.730
214.2655, 4013.279
214.7476, 3621.156
215.2297, 3281.021
215.7118, 2994.503
216.1940, 2747.477
216.6761, 2543.568
217.1582, 2380.469
217.6403, 2228.077
218.1224, 2086.159
218.6045, 1957.562
219.0867, 1844.104
219.5688, 1743.914
220.0509, 1665.874
220.5330, 1616.480
221.0151, 1595.536
221.4972, 1578.885
221.9794, 1560.503
222.4615, 1552.916
222.9436, 1571.975
223.4257, 1630.616
223.9078, 1689.431
224.3899, 1734.459
224.8721, 1763.358
225.3542, 1818.291
225.8363, 1910.617
226.3184, 2018.600
226.8005, 2119.744
227.2827, 2215.268
227.7648, 2300.544
228.2469, 2377.049
228.7290, 2446.748
229.2111, 2491.115
229.6932, 2507.778
230.1754, 2500.576
230.6575, 2476.076
231.1396, 2443.715
231.6217, 2376.554
232.1038, 2259.534
232.5859, 2081.020
233.0681, 1915.093
233.5502, 1765.321
234.0323, 1626.176
234.5144, 1486.327
234.9965, 1338.425
235.4786, 1204.334
235.9608, 1094.928
236.4429, 1020.488
236.9250, 927.1672
237.4071, 799.5005
237.8892, 663.2305
238.3713, 560.4744
238.8535, 506.2332
239.3356, 460.2588
239.8177, 411.0081
240.2998, 357.7395
240.7819, 303.3984
241.2640, 242.1370
241.7462, 182.1047
242.2283, 138.0107
242.7104, 116.9065
243.1925, 100.2051
243.6746, 82.28296
244.1567, 62.73340
244.6389, 43.04712
245.1210, 23.18896
245.6031, 3.253174
246.0852, 16.59497
246.5673, 37.17944
247.0494, 56.36914
247.5316, 74.17456
248.0137, 92.25439
248.4958, 103.1885
248.9779, 105.4448
249.4600, 101.3582
249.9421, 94.65161
250.4243, 83.49390
250.9064, 72.91528
251.3885, 65.00049
251.8706, 60.79028
252.3527, 55.19922
252.8348, 45.92188
253.3170, 36.67529
253.7991, 36.44922
254.2812, 52.87549
254.7633, 63.74219
255.2454, 60.00049
255.7275, 38.40771
256.2097, 13.40625
256.6918, 18.30859
257.1739, 50.91357
257.6560, 72.85474
258.1381, 79.34521
258.6202, 85.10840
259.1024, 95.83130
259.5845, 112.4773
260.0666, 129.7102
260.5487, 147.9167
261.0308, 166.3767
261.5129, 184.0088
261.9951, 199.1069
262.4772, 217.0715
262.9593, 239.6450
263.4414, 267.2212
263.9235, 299.5869
264.4056, 340.5671
264.8878, 383.1624
265.3699, 415.1331
265.8520, 433.6958
266.3341, 450.4341
266.8162, 471.2688
267.2983, 497.8201
267.7805, 516.5649
268.2626, 526.0764
268.7447, 529.1245
269.2268, 530.3950
269.7089, 530.2566
270.1910, 527.0376
270.6732, 520.2561
271.1553, 509.9802
271.6374, 495.2832
272.1195, 475.7874
272.6016, 452.3767
273.0837, 426.2559
273.5659, 396.6343
274.0480, 367.7012
274.5301, 338.4958
275.0122, 308.7783
275.4943, 291.9675
275.9764, 290.8909
276.4586, 297.4045
276.9407, 299.6318
277.4228, 297.0190
277.9049, 294.5071
278.3870, 292.3623
278.8691, 290.8677
279.3513, 295.9883
279.8334, 307.2236
280.3155, 326.3711
280.7976, 360.5554
281.2798, 410.3315
281.7619, 454.7554
282.2440, 481.0129
282.7261, 492.8530
283.2082, 521.1465
283.6903, 568.8267
284.1725, 622.1753
284.6546, 661.0044
285.1367, 685.8228
285.6188, 719.4558
286.1009, 773.0459
286.5830, 842.2417
287.0652, 905.8447
287.5473, 961.2539
288.0294, 1022.987
288.5115, 1110.546
288.9936, 1221.729
289.4757, 1333.941
289.9579, 1438.970
290.4400, 1540.262
290.9221, 1650.419
291.4042, 1769.702
291.8863, 1894.584
292.3684, 2022.401
292.8506, 2152.907
293.3327, 2287.480
293.8148, 2433.678
294.2969, 2581.005
294.7790, 2712.813
295.2611, 2829.577
295.7433, 2933.573
296.2254, 3037.046
296.7075, 3132.181
297.1896, 3193.642
297.6717, 3211.535
298.1538, 3196.425
298.6360, 3160.464
299.1181, 3103.802
299.6002, 3032.101
300.0823, 2940.557
300.5644, 2838.341
301.0465, 2741.403
301.5287, 2656.137
302.0108, 2573.920
302.4929, 2480.864
302.9750, 2378.795
303.4571, 2287.345
303.9392, 2216.906
304.4214, 2165.017
304.9035, 2127.909
305.3856, 2107.051
305.8677, 2097.703
306.3498, 2101.656
306.8319, 2115.929
307.3141, 2129.673
307.7962, 2134.864
308.2783, 2137.821
308.7604, 2144.867
309.2425, 2157.603
309.7246, 2172.396
310.2068, 2188.436
310.6889, 2205.377
311.1710, 2221.990
311.6531, 2240.226
312.1352, 2254.448
312.6173, 2258.443
313.0995, 2245.881
313.5816, 2242.981
314.0637, 2266.924
314.5458, 2309.016
315.0279, 2351.793
315.5100, 2387.482
315.9922, 2421.473
316.4743, 2457.061
316.9564, 2495.289
317.4385, 2532.194
317.9206, 2560.556
318.4027, 2588.145
318.8849, 2625.822
319.3670, 2697.647
319.8491, 2761.456
320.3312, 2800.939
320.8133, 2812.669
321.2954, 2814.017
321.7776, 2803.503
322.2597, 2786.260
322.7418, 2768.105
323.2239, 2753.724
323.7060, 2734.933
324.1881, 2711.660
324.6703, 2685.333
325.1524, 2644.624
325.6345, 2578.455
326.1166, 2503.441
326.5987, 2432.267
327.0808, 2355.747
327.5630, 2294.132
328.0451, 2250.329
328.5272, 2224.104
329.0093, 2211.150
329.4914, 2222.798
329.9735, 2237.641
330.4557, 2241.422
330.9378, 2226.222
331.4199, 2212.922
331.9020, 2197.420
332.3841, 2184.043
332.8662, 2197.110
333.3484, 2252.641
333.8305, 2310.098
334.3126, 2346.326
334.7947, 2352.613
335.2768, 2364.193
335.7589, 2386.388
336.2411, 2412.814
336.7232, 2429.380
337.2053, 2436.991
337.6874, 2431.581
338.1695, 2409.400
338.6516, 2369.311
339.1338, 2324.985
339.6159, 2279.222
340.0980, 2225.692
340.5801, 2155.013
341.0622, 2065.776
341.5443, 1963.504
342.0265, 1843.443
342.5086, 1708.861
342.9907, 1578.821
343.4728, 1453.857
343.9549, 1335.581
344.4370, 1229.699
344.9192, 1135.728
345.4013, 1043.996
345.8834, 952.7063
346.3655, 862.0293
346.8476, 773.0598
347.3297, 685.8157
347.8119, 608.2844
348.2940, 554.6858
348.7761, 518.2930
349.2582, 479.5493
349.7403, 428.2776
350.2225, 375.8201
350.7046, 338.9868
351.1867, 316.2798
351.6688, 298.6050
352.1509, 279.6799
352.6331, 261.4316
353.1152, 247.8784
353.5973, 243.3926
354.0794, 237.2249
354.5615, 220.1814
355.0436, 193.6472
355.5258, 161.8445
356.0079, 121.6055
356.4900, 80.15088
356.9721, 43.33887
357.4542, 11.91699
357.9363, 14.36426
358.4185, 36.06470
358.9006, 52.69775
359.3827, 63.40674
359.8648, 63.70972
360.3469, 61.29443
360.8290, 60.03369
361.3112, 60.47241
361.7933, 60.42236
362.2754, 62.86328
362.7575, 63.07251
363.2396, 55.87891
363.7217, 33.89893
364.2039, 10.70044
364.6860, 10.65405
365.1681, 30.14526
365.6502, 48.80029
366.1323, 60.39429
366.6144, 75.14966
367.0966, 100.3240
367.5787, 147.3652
368.0608, 190.6406
368.5429, 226.5398
369.0250, 256.9275
369.5071, 290.0654
369.9893, 323.6692
370.4714, 362.4353
370.9535, 411.3093
371.4356, 482.9382
371.9177, 534.1611
372.3998, 559.8838
372.8820, 567.2710
373.3641, 572.5085
373.8462, 578.5583
374.3283, 574.9097
374.8104, 558.1938
375.2925, 528.3442
375.7747, 482.1650
376.2568, 415.3604
376.7389, 340.0208
377.2210, 268.9988
377.7031, 201.6084
378.1852, 149.4824
378.6674, 121.6980
379.1495, 111.6155
379.6316, 84.30200
380.1137, 37.26172
380.5958, 2.497803
381.0779, 2.250488
381.5601, 30.23755
382.0422, 55.29199
382.5243, 60.77905
383.0064, 59.44849
383.4885, 73.85425
383.9706, 102.3491
384.4528, 131.6060
384.9349, 149.7891
385.4170, 163.7246
385.8991, 185.7681
386.3812, 219.3325
386.8633, 256.7773
387.3455, 288.1340
387.8276, 317.6609
388.3097, 355.8196
388.7918, 414.1741
389.2739, 478.8608
389.7560, 539.6799
390.2382, 595.7854
390.7203, 648.7556
391.2024, 697.2842
391.6845, 745.0869
392.1666, 796.9370
392.6487, 849.8228
393.1309, 909.1035
393.6130, 977.3108
394.0951, 1051.980
394.5772, 1124.465
395.0593, 1203.305
395.5414, 1277.965
396.0236, 1338.651
396.5057, 1368.265
396.9878, 1399.499
397.4699, 1440.362
397.9520, 1485.506
398.4341, 1517.958
398.9163, 1531.209
399.3984, 1538.843
399.8805, 1546.813
400.3626, 1559.689
400.8447, 1558.393
401.3268, 1536.690
401.8090, 1503.748
402.2911, 1471.624
402.7732, 1439.991
403.2553, 1413.612
403.7374, 1397.687
404.2195, 1390.686
404.7017, 1363.250
405.1838, 1310.625
405.6659, 1252.761
406.1480, 1207.150
406.6301, 1174.077
407.1122, 1145.831
407.5944, 1119.936
408.0765, 1098.370
408.5586, 1089.537
409.0407, 1092.099
409.5228, 1093.108
410.0049, 1078.624
410.4871, 1055.283
410.9692, 1045.464
411.4513, 1053.564
411.9334, 1069.049
412.4155, 1077.562
412.8976, 1083.521
413.3798, 1098.888
413.8619, 1133.535
414.3440, 1178.005
414.8261, 1220.756
415.3082, 1261.586
415.7903, 1311.021
416.2725, 1373.057
416.7546, 1449.242
417.2367, 1543.435
417.7188, 1664.418
418.2009, 1794.086
418.6830, 1922.232
419.1652, 2051.510
419.6473, 2186.758
420.1294, 2313.874
420.6115, 2459.993
421.0937, 2644.698
421.5758, 2880.013
422.0579, 3128.633
422.5400, 3383.942
423.0221, 3649.078
423.5042, 3935.983
423.9864, 4251.102
424.4685, 4576.996
424.9506, 4911.194
425.4327, 5247.785
425.9148, 5612.705
426.3969, 6009.365
426.8791, 6430.153
427.3612, 6864.572
427.8433, 7310.702
428.3254, 7776.317
428.8075, 8274.840
429.2896, 8787.518
429.7718, 9259.981
430.2539, 9706.333
430.7360, 10048.14
431.2181, 10265.62
431.7002, 10352.15
432.1823, 10197.58
432.6645, 9780.706
433.1466, 9172.516
433.6287, 8411.754
434.1108, 7527.916
434.5929, 6659.138
435.0750, 5837.393
435.5572, 5085.290
436.0393, 4451.781
436.5214, 3934.748
437.0035, 3487.205
437.4856, 3096.306
437.9677, 2748.942
438.4499, 2428.884
438.9320, 2130.331
439.4141, 1865.145
439.8962, 1649.566
440.3783, 1474.475
440.8604, 1310.770
441.3426, 1143.311
441.8247, 987.9199
442.3068, 855.4648
442.7889, 749.8999
443.2710, 653.9058
443.7531, 563.8318
444.2353, 480.8672
444.7174, 404.8521
445.1995, 332.7283
445.6816, 272.0728
446.1637, 204.9468
446.6458, 216.0539
447.1280, 215.3746
447.6101, 203.5835
448.0922, 145.3257
448.5743, 148.6506
449.0564, 128.2625
449.5385, 107.5626
450.0207, 121.5257
450.5028, 73.57459
450.9849, 88.38064
451.4670, 79.09979
451.9491, 81.84860
452.4312, 60.73229
452.9134, 47.88871
453.3955, 60.29807
453.8776, 59.79736
454.3597, 38.61346
454.8418, 46.22124
455.3239, 4.309711
455.8061, 7.146222
456.2882, 29.68244
456.7703, 13.18202
457.2524, 24.68709
457.7345, 26.47854
458.2166, -18.31957
458.6988, 19.79533
459.1809, 23.04117
459.6630, -9.534540
460.1451, 27.83228
460.6272, 1.669394
461.1093, -0.8812702
461.5915, 14.50891
462.0736, 12.60528
462.5557, 39.74345
463.0378, 40.25774
463.5199, 39.02096
464.0020, 49.12422
464.4842, 29.73975
464.9663, 67.03132
465.4484, 66.76794
465.9305, 86.20517
466.4126, 110.6403
466.8947, 102.7726
467.3769, 130.5255
467.8590, 104.7994
468.3411, 125.0859
468.8232, 141.1825
469.3053, 186.9378
469.7874, 164.2346
470.2696, 299.3877
470.7517, 394.2612
471.2338, 465.5784
471.7159, 537.9644
472.1980, 630.5962
472.6801, 743.7695
473.1623, 867.1780
473.6444, 999.7554
474.1265, 1142.942
474.6086, 1298.675
475.0907, 1467.024
475.5728, 1648.401
476.0550, 1839.141
476.5371, 2045.336
477.0192, 2277.078
477.5013, 2535.866
477.9834, 2805.261
478.4655, 3065.275
478.9477, 3331.764
479.4298, 3621.214
479.9119, 3938.602
480.3940, 4284.914
480.8761, 4672.101
481.3582, 5088.707
481.8404, 5497.218
482.3225, 5908.016
482.8046, 6288.974
483.2867, 6640.602
483.7688, 6983.810
484.2509, 7224.178
484.7331, 7366.216
485.2152, 7393.166
485.6973, 7286.009
486.1794, 7011.232
486.6615, 6654.237
487.1436, 6202.006
487.6258, 5674.004
488.1079, 5155.149
488.5900, 4643.658
489.0721, 4154.605
489.5542, 3691.444
490.0363, 3251.843
490.5185, 2864.621
491.0006, 2535.761
491.4827, 2252.592
491.9648, 2013.509
492.4470, 1813.464
492.9291, 1630.082
493.4112, 1462.624
493.8933, 1305.833
494.3754, 1145.656
494.8575, 986.0713
495.3397, 861.2456
495.8218, 807.1089
496.3039, 791.2397
496.7860, 782.3530
497.2681, 778.5391
497.7502, 769.6792
498.2324, 742.4668
498.7145, 709.1987
499.1966, 686.2051
499.6787, 690.0933
500.1608, 693.2954
500.6429, 689.5098
501.1251, 678.4385
501.6072, 659.0278
502.0893, 618.6519
502.5714, 580.9253
503.0535, 558.2104
503.5356, 561.0054
504.0178, 553.9004
504.4999, 535.5537
504.9820, 508.4473
505.4641, 472.5952
505.9462, 424.5854
506.4283, 385.6479
506.9105, 362.5693
507.3926, 351.2095
507.8747, 341.3589
508.3568, 333.9497
508.8389, 326.0571
509.3210, 316.4526
509.8032, 304.9961
510.2853, 289.7666
510.7674, 267.5459
511.2495, 246.9082
511.7316, 239.4189
512.2137, 240.8711
512.6959, 241.4233
513.1780, 231.4741
513.6601, 223.8306
514.1422, 228.5576
514.6243, 244.0723
515.1064, 259.3481
515.5886, 265.3569
516.0707, 273.5410
516.5528, 292.5327
517.0349, 331.7119
517.5170, 364.6479
517.9991, 379.1309
518.4813, 388.7397
518.9634, 410.4922
519.4455, 444.6616
519.9276, 490.6196
520.4097, 550.9819
520.8918, 622.2158
521.3740, 688.2627
521.8561, 744.3730
522.3382, 809.5898
522.8203, 898.4653
523.3024, 1009.707
523.7845, 1134.912
524.2667, 1282.789
524.7488, 1417.318
525.2309, 1476.301
525.7130, 1484.453
526.1951, 1523.654
526.6772, 1632.227
527.1594, 1776.835
527.6415, 1927.994
528.1236, 2082.862
528.6057, 2232.927
529.0878, 2359.857
529.5699, 2487.396
530.0521, 2636.060
530.5342, 2817.267
531.0163, 2985.698
531.4984, 3113.067
531.9805, 3227.932
532.4626, 3361.247
532.9448, 3551.302
533.4269, 3718.389
533.9090, 3843.216
534.3911, 3937.471
534.8732, 4043.863
535.3553, 4177.418
535.8375, 4297.480
536.3196, 4384.592
536.8017, 4439.002
537.2838, 4481.020
537.7659, 4511.861
538.2480, 4527.567
538.7302, 4525.508
539.2123, 4505.309
539.6944, 4463.109
540.1765, 4394.568
540.6586, 4310.150
541.1407, 4219.588
541.6229, 4123.458
542.1050, 4022.646
542.5871, 3915.342
543.0692, 3804.929
543.5513, 3692.229
544.0334, 3578.363
544.5156, 3472.867
544.9977, 3393.157
545.4798, 3316.232
545.9619, 3223.486
546.4440, 3086.792
546.9261, 2970.770
547.4083, 2902.510
547.8904, 2856.502
548.3725, 2785.842
548.8546, 2662.043
549.3367, 2560.081
549.8188, 2503.288
550.3010, 2487.579
550.7831, 2466.288
551.2652, 2438.971
551.7473, 2407.400
552.2294, 2371.581
552.7115, 2331.955
553.1937, 2292.213
553.6758, 2250.845
554.1579, 2216.890
554.6400, 2200.149
555.1221, 2199.785
555.6042, 2214.354
556.0864, 2255.641
556.5685, 2300.930
557.0506, 2321.783
557.5327, 2324.057
558.0148, 2331.562
558.4969, 2352.194
558.9791, 2384.973
559.4612, 2428.505
559.9433, 2481.459
560.4254, 2551.988
560.9075, 2653.222
561.3896, 2765.771
561.8718, 2873.044
562.3539, 2963.562
562.8360, 3066.548
563.3181, 3184.186
563.8002, 3313.545
564.2823, 3447.228
564.7645, 3580.838
565.2466, 3735.362
565.7287, 3919.649
566.2108, 4130.435
566.6929, 4348.428
567.1750, 4571.673
567.6572, 4809.800
568.1393, 5064.684
568.6214, 5337.564
569.1035, 5617.813
569.5856, 5900.259
570.0677, 6213.890
570.5499, 6622.109
571.0320, 7073.488
571.5141, 7488.600
571.9962, 7767.988
572.4783, 8075.559
572.9604, 8488.345
573.4426, 8987.604
573.9247, 9485.004
574.4068, 9940.378
574.8889, 10411.69
575.3710, 10920.85
575.8531, 11467.48
576.3353, 12022.35
576.8174, 12587.87
577.2995, 13150.19
577.7816, 13705.17
578.2637, 14251.12
578.7458, 14783.11
579.2280, 15305.00
579.7101, 15804.28
580.1922, 16257.13
580.6743, 16666.32
581.1564, 17047.67
581.6385, 17462.22
582.1207, 17825.14
582.6028, 18018.38
583.0849, 18047.24
583.5670, 17967.98
584.0491, 17809.68
584.5313, 17558.46
585.0134, 17198.04
585.4955, 16715.28
585.9776, 16163.39
586.4597, 15544.16
586.9418, 14868.06
587.4240, 14151.72
587.9061, 13358.69
588.3882, 12577.89
588.8703, 11814.70
589.3524, 11070.93
589.8345, 10351.23
590.3167, 9655.044
590.7988, 8979.406
591.2809, 8331.946
591.7630, 7710.646
592.2451, 7134.358
592.7272, 6603.246
593.2094, 6113.794
593.6915, 5672.221
594.1736, 5268.409
594.6557, 4879.941
595.1378, 4509.512
595.6199, 4160.265
596.1021, 3837.450
596.5842, 3538.769
597.0663, 3259.801
597.5485, 2997.062
598.0306, 2760.057
598.5127, 2558.387
598.9948, 2387.380
599.4769, 2223.593
599.9590, 2054.276
600.4412, 1902.601
600.9233, 1784.936
