##NAMES=Fluorapophyllite-(K)
##RRUFFID=R060554
##IDEAL CHEMISTRY=KCa_4_Si_8_O_20_F&#183;8H_2_O
##LOCALITY=unknown
##OWNER=RRUFF
##SOURCE=Gemological Institute of America
##DESCRIPTION=Colorless polished fragment
##STATUS=The identification of this mineral has been confirmed by X-ray diffraction and chemical analysis
##URL=rruff.info/R060554
##MEASURED CHEMISTRY=(K_0.88_Na_0.12_)Ca_4.00_Si_8.00_O_20_F_1.00_Â·8H2O
124.421, 0.000
124.903, 2.533
125.385, 8.734
125.867, 42.604
126.349, 112.536
126.831, 223.552
127.313, 362.662
127.796, 528.631
128.278, 716.889
128.760, 927.664
129.242, 1162.613
129.724, 1417.108
130.206, 1662.137
130.688, 1927.906
131.170, 2161.826
131.652, 2358.518
132.135, 2509.018
132.617, 2604.889
133.099, 2636.263
133.581, 2582.757
134.063, 2442.448
134.545, 2166.768
135.027, 1869.309
135.509, 1589.076
135.992, 1334.432
136.474, 1102.783
136.956, 892.531
137.438, 706.797
137.920, 544.099
138.402, 406.604
138.884, 288.457
139.366, 184.402
139.848, 94.020
140.331, 20.987
140.813, 27.961
141.295, 43.043
141.777, 54.004
142.259, 67.767
142.741, 74.623
143.223, 64.050
143.705, 33.295
144.188, 11.525
144.670, 62.229
145.152, 116.678
145.634, 182.760
146.116, 271.188
146.598, 368.915
147.080, 456.337
147.562, 526.582
148.044, 592.270
148.527, 676.987
149.009, 783.479
149.491, 892.385
149.973, 1004.557
150.455, 1116.159
150.937, 1219.099
151.419, 1310.498
151.901, 1394.201
152.383, 1475.743
152.866, 1552.223
153.348, 1636.068
153.830, 1724.517
154.312, 1822.872
154.794, 1945.191
155.276, 2094.663
155.758, 2273.729
156.240, 2479.288
156.723, 2706.199
157.205, 2965.800
157.687, 3266.756
158.169, 3605.025
158.651, 3976.758
159.133, 4408.785
159.615, 4842.523
160.097, 5214.224
160.579, 5547.352
161.062, 5763.181
161.544, 5808.052
162.026, 5687.846
162.508, 5436.577
162.990, 5007.572
163.472, 4487.382
163.954, 4002.608
164.436, 3558.316
164.919, 3150.421
165.401, 2780.500
165.883, 2447.520
166.365, 2146.948
166.847, 1887.526
167.329, 1658.044
167.811, 1442.789
168.293, 1239.389
168.775, 1054.639
169.258, 895.262
169.740, 761.315
170.222, 650.149
170.704, 565.267
171.186, 502.945
171.668, 456.643
172.150, 424.220
172.632, 413.136
173.115, 435.783
173.597, 494.222
174.079, 560.242
174.561, 618.532
175.043, 684.842
175.525, 774.841
176.007, 893.749
176.489, 1029.698
176.971, 1164.015
177.454, 1292.185
177.936, 1454.929
178.418, 1671.421
178.900, 1928.568
179.382, 2219.291
179.864, 2542.892
180.346, 2900.348
180.828, 3294.607
181.311, 3725.863
181.793, 4188.543
182.275, 4727.797
182.757, 5273.233
183.239, 5785.663
183.721, 6270.365
184.203, 6656.665
184.685, 6862.087
185.167, 6879.062
185.650, 6753.315
186.132, 6414.546
186.614, 5973.875
187.096, 5481.988
187.578, 4940.725
188.060, 4407.412
188.542, 3937.938
189.024, 3534.811
189.507, 3204.331
189.989, 2992.579
190.471, 2835.389
190.953, 2692.324
191.435, 2553.438
191.917, 2432.960
192.399, 2344.060
192.881, 2284.479
193.363, 2264.078
193.846, 2313.667
194.328, 2391.070
194.810, 2470.398
195.292, 2545.800
195.774, 2624.708
196.256, 2711.905
196.738, 2804.505
197.220, 2917.333
197.702, 3074.087
198.185, 3241.968
198.667, 3392.530
199.149, 3520.941
199.631, 3656.066
200.113, 3831.143
200.595, 4050.046
201.077, 4300.530
201.559, 4576.879
202.042, 4892.484
202.524, 5256.632
203.006, 5672.950
203.488, 6134.802
203.970, 6636.396
204.452, 7179.281
204.934, 7759.438
205.416, 8406.105
205.898, 9070.193
206.381, 9738.496
206.863, 10408.945
207.345, 11042.169
207.827, 11621.369
208.309, 12153.589
208.791, 12553.202
209.273, 12823.577
209.755, 12924.774
210.238, 12811.839
210.720, 12485.930
211.202, 12011.494
211.684, 11412.655
212.166, 10685.580
212.648, 9960.298
213.130, 9218.413
213.612, 8523.493
214.094, 7912.047
214.577, 7387.564
215.059, 6931.452
215.541, 6542.641
216.023, 6220.876
216.505, 5938.058
216.987, 5703.166
217.469, 5501.899
217.951, 5325.998
218.434, 5174.018
218.916, 5038.814
219.398, 4912.461
219.880, 4796.582
220.362, 4706.119
220.844, 4644.551
221.326, 4608.564
221.808, 4589.621
222.290, 4589.546
222.773, 4614.976
223.255, 4682.636
223.737, 4783.488
224.219, 4872.415
224.701, 4947.148
225.183, 5010.500
225.665, 5071.564
226.147, 5125.513
226.629, 5159.136
227.112, 5174.362
227.594, 5164.062
228.076, 5103.405
228.558, 4981.502
229.040, 4829.217
229.522, 4664.127
230.004, 4484.757
230.486, 4287.112
230.969, 4064.942
231.451, 3825.430
231.933, 3578.073
232.415, 3320.262
232.897, 3064.072
233.379, 2811.331
233.861, 2566.650
234.343, 2338.517
234.825, 2133.039
235.307, 1944.021
235.790, 1761.204
236.272, 1583.541
236.754, 1417.076
237.236, 1261.948
237.718, 1120.543
238.200, 996.551
238.682, 895.368
239.165, 806.648
239.647, 720.895
240.129, 637.716
240.611, 562.740
241.093, 503.021
241.575, 450.668
242.057, 391.931
242.539, 321.119
243.021, 252.720
243.503, 198.643
243.986, 157.477
244.468, 118.526
244.950, 76.368
245.432, 36.366
245.914, 6.771
246.396, 10.236
246.878, 23.816
247.361, 38.370
247.843, 53.280
248.325, 67.701
248.807, 83.427
249.289, 94.984
249.771, 91.115
250.253, 69.114
250.735, 52.512
251.217, 51.385
251.699, 60.948
252.182, 75.210
252.664, 94.431
253.146, 111.480
253.628, 115.331
254.110, 105.532
254.592, 95.062
255.074, 89.409
255.556, 82.857
256.039, 68.701
256.521, 45.795
257.003, 17.408
257.485, 13.891
257.967, 48.419
258.449, 85.255
258.931, 122.648
259.413, 163.447
259.896, 208.417
260.378, 258.340
260.860, 316.752
261.342, 389.051
261.824, 474.890
262.306, 554.783
262.788, 624.817
263.270, 692.799
263.752, 767.605
264.235, 844.703
264.717, 911.695
265.199, 961.265
265.681, 994.326
266.163, 1017.055
266.645, 1041.781
267.127, 1044.511
267.609, 1013.606
268.091, 957.735
268.574, 888.267
269.056, 810.094
269.538, 725.887
270.020, 645.273
270.502, 566.388
270.984, 493.598
271.466, 426.381
271.948, 365.624
272.431, 313.725
272.913, 271.029
273.395, 233.565
273.877, 193.614
274.359, 145.698
274.841, 106.469
275.323, 76.410
275.805, 53.205
276.288, 35.566
276.770, 23.066
277.252, 15.806
277.734, 13.632
278.216, 16.222
278.698, 25.736
279.180, 44.917
279.662, 68.355
280.144, 92.463
280.626, 118.718
281.109, 152.375
281.591, 199.916
282.073, 260.406
282.555, 312.677
283.037, 347.056
283.519, 385.251
284.001, 433.262
284.483, 489.594
284.966, 551.194
285.448, 614.849
285.930, 684.051
286.412, 768.275
286.894, 873.571
287.376, 981.723
287.858, 1078.231
288.340, 1178.033
288.823, 1296.949
289.305, 1441.479
289.787, 1601.132
290.269, 1763.536
290.751, 1928.301
291.233, 2097.000
291.715, 2268.353
292.197, 2445.002
292.679, 2631.057
293.162, 2827.390
293.644, 3024.096
294.126, 3219.107
294.608, 3409.998
295.090, 3584.464
295.572, 3750.798
296.054, 3882.585
296.536, 3951.125
297.018, 3961.476
297.501, 3946.749
297.983, 3930.934
298.465, 3894.835
298.947, 3802.033
299.429, 3644.260
299.911, 3453.633
300.393, 3247.110
300.875, 3026.584
301.358, 2810.209
301.840, 2594.784
302.322, 2388.851
302.804, 2200.191
303.286, 2028.023
303.768, 1865.824
304.250, 1707.998
304.732, 1556.500
305.215, 1417.041
305.697, 1291.072
306.179, 1173.575
306.661, 1058.628
307.143, 950.961
307.625, 860.885
308.107, 794.396
308.589, 743.596
309.071, 692.307
309.553, 639.858
310.036, 585.339
310.518, 524.530
311.000, 463.419
311.482, 406.082
311.964, 354.687
312.446, 312.337
312.928, 283.795
313.410, 273.443
313.893, 261.602
314.375, 247.617
314.857, 234.277
315.339, 221.316
315.821, 208.418
316.303, 197.107
316.785, 188.104
317.267, 181.712
317.750, 182.081
318.232, 195.176
318.714, 208.182
319.196, 217.958
319.678, 225.735
320.160, 232.416
320.642, 237.733
321.124, 244.605
321.606, 259.176
322.089, 282.848
322.571, 310.167
323.053, 345.306
323.535, 380.379
324.017, 405.744
324.499, 419.564
324.981, 438.286
325.463, 478.557
325.945, 539.253
326.428, 603.610
326.910, 675.521
327.392, 744.918
327.874, 798.873
328.356, 840.028
328.838, 886.247
329.320, 950.623
329.802, 1023.362
330.284, 1086.912
330.767, 1139.521
331.249, 1194.006
331.731, 1260.423
332.213, 1335.658
332.695, 1407.077
333.177, 1474.865
333.659, 1537.452
334.142, 1593.259
334.624, 1642.074
335.106, 1684.131
335.588, 1720.421
336.070, 1749.028
336.552, 1763.245
337.034, 1765.377
337.516, 1752.418
337.998, 1718.581
338.480, 1671.882
338.963, 1621.462
339.445, 1569.583
339.927, 1511.564
340.409, 1440.666
340.891, 1352.507
341.373, 1266.094
341.855, 1180.817
342.337, 1097.533
342.819, 1017.535
343.302, 939.906
343.784, 862.432
344.266, 781.816
344.748, 699.551
345.230, 624.592
345.712, 557.628
346.194, 515.370
346.677, 485.158
347.159, 452.020
347.641, 416.109
348.123, 369.140
348.605, 336.436
349.087, 297.998
349.569, 259.327
350.051, 228.614
350.533, 183.223
351.016, 152.368
351.498, 114.630
351.980, 75.075
352.462, 55.417
352.944, 50.529
353.426, 56.081
353.908, 56.171
354.390, 48.586
354.872, 37.947
355.355, 25.042
355.837, 11.554
356.319, 2.610
356.801, 0.161
357.283, 2.069
357.765, 6.803
358.247, 14.311
358.729, 24.221
359.211, 36.018
359.694, 50.405
360.176, 70.241
360.658, 100.565
361.140, 126.354
361.622, 136.836
362.104, 143.201
362.586, 160.767
363.069, 193.298
363.551, 232.549
364.033, 267.348
364.515, 293.849
364.997, 331.702
365.479, 385.262
365.961, 444.611
366.443, 504.561
366.925, 565.970
367.408, 631.971
367.890, 705.212
368.372, 784.818
368.854, 863.630
369.336, 941.851
369.818, 1018.695
370.300, 1098.914
370.782, 1175.053
371.264, 1240.833
371.747, 1294.117
372.229, 1334.617
372.711, 1363.631
373.193, 1381.653
373.675, 1380.507
374.157, 1363.373
374.639, 1319.179
375.121, 1234.368
375.603, 1115.773
376.086, 994.974
376.568, 886.715
377.050, 786.739
377.532, 687.000
378.014, 586.343
378.496, 493.126
378.978, 412.611
379.460, 343.967
379.943, 281.703
380.425, 225.459
380.907, 175.719
381.389, 131.323
381.871, 93.390
382.353, 66.140
382.835, 51.678
383.317, 41.163
383.799, 20.441
384.282, 18.757
384.764, 46.642
385.246, 60.652
385.728, 65.764
386.210, 59.802
386.692, 46.757
387.174, 38.288
387.656, 44.408
388.138, 62.650
388.621, 70.833
389.103, 58.564
389.585, 49.414
390.067, 51.839
390.549, 57.389
391.031, 56.705
391.513, 46.758
391.996, 31.920
392.478, 16.970
392.960, 1.639
393.442, 11.270
393.924, 19.817
394.406, 27.477
394.888, 36.519
395.370, 46.718
395.852, 56.864
396.335, 65.281
396.817, 73.730
397.299, 86.212
397.781, 103.131
398.263, 117.962
398.745, 126.099
399.227, 130.022
399.709, 137.394
400.191, 151.711
400.674, 163.563
401.156, 165.571
401.638, 163.823
402.120, 169.218
402.602, 184.602
403.084, 201.633
403.566, 208.391
404.048, 198.938
404.530, 205.237
405.013, 244.792
405.495, 281.028
405.977, 293.584
406.459, 288.857
406.941, 283.495
407.423, 287.214
407.905, 297.207
408.387, 303.811
408.870, 302.752
409.352, 307.368
409.834, 325.502
410.316, 345.992
410.798, 360.542
411.280, 367.949
411.762, 371.920
412.244, 372.287
412.727, 370.900
413.209, 378.672
413.691, 399.384
414.173, 421.846
414.655, 435.838
415.137, 445.987
415.619, 463.157
416.101, 492.973
416.583, 526.613
417.065, 553.159
417.548, 576.877
418.030, 613.960
418.512, 672.819
418.994, 743.214
419.476, 805.396
419.958, 845.709
420.440, 911.663
420.922, 1016.887
421.405, 1139.684
421.887, 1260.655
422.369, 1383.234
422.851, 1526.302
423.333, 1702.834
423.815, 1911.784
424.297, 2139.328
424.779, 2379.722
425.262, 2648.305
425.744, 2941.693
426.226, 3264.248
426.708, 3617.173
427.190, 3999.969
427.672, 4424.371
428.154, 4906.598
428.636, 5443.210
429.118, 6009.937
429.601, 6635.450
430.083, 7239.449
430.565, 7833.542
431.047, 8370.063
431.529, 8704.460
432.011, 8793.003
432.493, 8667.347
432.975, 8306.577
433.457, 7742.635
433.940, 7079.783
434.422, 6338.290
434.904, 5574.908
435.386, 4897.386
435.868, 4311.460
436.350, 3796.884
436.832, 3378.838
437.314, 3015.183
437.797, 2679.704
438.279, 2369.766
438.761, 2099.433
439.243, 1877.732
439.725, 1701.326
440.207, 1543.148
440.689, 1406.656
441.171, 1282.786
441.654, 1165.097
442.136, 1056.940
442.618, 965.226
443.100, 891.799
443.582, 827.116
444.064, 762.569
444.546, 700.029
445.028, 646.918
445.510, 605.899
445.992, 565.742
446.475, 518.454
446.957, 468.297
447.439, 422.138
447.921, 376.043
448.403, 338.110
448.885, 318.327
449.367, 311.751
449.849, 305.375
450.332, 294.909
450.814, 281.752
451.296, 266.378
451.778, 243.735
452.260, 234.353
452.742, 243.851
453.224, 260.509
453.706, 282.035
454.189, 305.399
454.671, 325.081
455.153, 337.016
455.635, 345.949
456.117, 365.415
456.599, 399.049
457.081, 432.883
457.563, 466.344
458.045, 497.894
458.528, 522.918
459.010, 542.656
459.492, 568.628
459.974, 619.107
460.456, 677.648
460.938, 706.441
461.420, 702.258
461.902, 697.647
462.384, 715.550
462.867, 743.794
463.349, 745.486
463.831, 708.722
464.313, 668.979
464.795, 637.433
465.277, 607.544
465.759, 571.610
466.241, 528.532
466.724, 482.267
467.206, 436.177
467.688, 390.321
468.170, 346.683
468.652, 304.810
469.134, 266.137
469.616, 231.981
470.098, 200.916
470.581, 171.344
471.063, 142.973
471.545, 115.706
472.027, 88.337
472.509, 61.202
472.991, 40.151
473.473, 26.167
473.955, 17.344
474.437, 15.694
474.919, 18.328
475.402, 17.312
475.884, 4.939
476.366, 5.305
476.848, 4.491
477.330, 5.097
477.812, 18.093
478.294, 32.777
478.776, 50.588
479.259, 74.499
479.741, 108.720
480.223, 133.911
480.705, 135.899
481.187, 144.592
481.669, 179.240
482.151, 229.599
482.633, 276.966
483.116, 312.561
483.598, 336.259
484.080, 344.648
484.562, 335.509
485.044, 326.504
485.526, 326.155
486.008, 320.421
486.490, 295.314
486.972, 254.167
487.455, 216.320
487.937, 193.254
488.419, 173.421
488.901, 142.049
489.383, 101.906
489.865, 67.942
490.347, 46.881
490.829, 34.977
491.311, 25.601
491.794, 22.824
492.276, 13.726
492.758, 9.217
493.240, 31.884
493.722, 46.811
494.204, 53.918
494.686, 55.241
495.168, 51.302
495.651, 44.353
496.133, 39.952
496.615, 37.676
497.097, 39.480
497.579, 52.970
498.061, 64.765
498.543, 62.649
499.025, 47.553
499.508, 33.470
499.990, 30.295
500.472, 29.537
500.954, 18.344
501.436, 2.038
501.918, 19.203
502.400, 26.655
502.882, 27.701
503.364, 29.741
503.846, 32.285
504.329, 36.861
504.811, 39.213
505.293, 47.094
505.775, 70.023
506.257, 103.955
506.739, 135.637
507.221, 155.732
507.703, 168.213
508.186, 186.141
508.668, 214.029
509.150, 231.738
509.632, 222.733
510.114, 211.100
510.596, 219.091
511.078, 245.816
511.560, 268.565
512.042, 265.655
512.525, 260.644
513.007, 255.137
513.489, 252.950
513.971, 255.064
514.453, 256.138
514.935, 256.228
515.417, 252.380
515.899, 253.627
516.382, 252.837
516.864, 251.967
517.346, 252.819
517.828, 237.497
518.310, 229.343
518.792, 223.014
519.274, 215.367
519.756, 207.229
520.239, 200.725
520.721, 196.255
521.203, 190.831
521.685, 181.368
522.167, 173.293
522.649, 172.995
523.131, 179.546
523.613, 183.542
524.096, 178.309
524.578, 172.196
525.060, 172.700
525.542, 178.867
526.024, 186.223
526.506, 192.740
526.988, 200.758
527.470, 214.988
527.952, 238.381
528.435, 260.056
528.917, 280.766
529.399, 299.190
529.881, 313.567
530.363, 325.354
530.845, 335.729
531.327, 344.086
531.809, 356.449
532.291, 386.756
532.774, 434.252
533.256, 469.177
533.738, 481.298
534.220, 487.502
534.702, 505.872
535.184, 534.380
535.666, 555.276
536.148, 561.173
536.630, 564.318
537.113, 570.882
537.595, 578.562
538.077, 583.991
538.559, 585.975
539.041, 583.715
539.523, 575.710
540.005, 561.481
540.487, 547.267
540.969, 537.827
541.452, 521.888
541.934, 488.534
542.416, 450.458
542.898, 424.618
543.380, 416.644
543.862, 411.316
544.344, 396.368
544.826, 374.958
545.309, 354.820
545.791, 336.862
546.273, 318.322
546.755, 296.514
547.237, 272.663
547.719, 253.336
548.201, 240.487
548.683, 228.913
549.166, 199.385
549.648, 186.803
550.130, 188.622
550.612, 185.748
551.094, 178.233
551.576, 161.317
552.058, 181.085
552.540, 166.893
553.023, 151.618
553.505, 184.070
553.987, 161.266
554.469, 156.021
554.951, 148.559
555.433, 138.159
555.915, 135.938
556.397, 155.767
556.879, 178.535
557.362, 185.213
557.844, 179.202
558.326, 172.552
558.808, 170.739
559.290, 177.819
559.772, 202.449
560.254, 255.032
560.736, 292.600
561.218, 302.796
561.701, 309.837
562.183, 317.101
562.665, 328.411
563.147, 349.232
563.629, 381.963
564.111, 423.479
564.593, 475.527
565.075, 534.343
565.557, 588.356
566.040, 636.167
566.522, 675.108
567.004, 697.735
567.486, 707.552
567.968, 745.025
568.450, 828.180
568.932, 911.884
569.414, 987.791
569.896, 1060.782
570.379, 1131.593
570.861, 1203.524
571.343, 1286.603
571.825, 1390.835
572.307, 1511.248
572.789, 1629.932
573.271, 1744.738
573.753, 1865.965
574.236, 1993.174
574.718, 2131.124
575.200, 2288.236
575.682, 2464.667
576.164, 2637.872
576.646, 2794.981
577.128, 2952.677
577.610, 3123.174
578.093, 3303.559
578.575, 3488.155
579.057, 3674.810
579.539, 3861.309
580.021, 4048.219
580.503, 4242.167
580.985, 4400.470
581.467, 4508.503
581.950, 4599.514
582.432, 4694.833
582.914, 4781.789
583.396, 4845.232
583.878, 4886.801
584.360, 4887.050
584.842, 4822.924
585.324, 4713.304
585.806, 4585.017
586.289, 4442.784
586.771, 4288.188
587.253, 4121.807
587.735, 3944.435
588.217, 3757.909
588.699, 3558.757
589.181, 3356.088
589.663, 3140.056
590.145, 2930.778
590.628, 2742.707
591.110, 2573.254
591.592, 2409.565
592.074, 2246.348
592.556, 2085.301
593.038, 1924.065
593.520, 1765.741
594.002, 1626.345
594.484, 1510.884
594.967, 1407.253
595.449, 1302.054
595.931, 1194.777
596.413, 1099.191
596.895, 1018.005
597.377, 943.058
597.859, 875.771
598.341, 812.135
598.823, 746.772
599.306, 679.347
599.788, 615.508
600.270, 561.462
600.752, 514.307
601.234, 463.124
601.716, 406.862
602.198, 358.291
602.680, 324.079
603.162, 297.991
603.645, 272.069
604.127, 246.702
604.609, 218.811
605.091, 182.440
605.573, 149.051
606.055, 126.994
606.537, 112.034
607.019, 96.634
607.502, 78.051
607.984, 58.889
608.466, 41.157
608.948, 25.038
609.430, 15.296
609.912, 14.294
610.394, 13.721
610.876, 10.312
611.359, 4.305
611.841, 3.850
612.323, 14.589
612.805, 25.906
613.287, 42.274
613.769, 55.016
614.251, 53.721
614.733, 41.888
615.216, 31.943
615.698, 30.364
616.180, 31.235
616.662, 21.747
617.144, 0.727
617.626, 15.320
618.108, 16.339
618.590, 15.996
619.072, 20.109
619.555, 28.033
620.037, 39.590
620.519, 57.223
621.001, 72.666
621.483, 80.640
621.965, 85.252
622.447, 91.569
622.929, 99.614
623.411, 105.439
623.894, 105.855
624.376, 104.715
624.858, 113.110
625.340, 133.371
625.822, 155.310
626.304, 183.731
626.786, 206.822
627.268, 215.433
627.750, 213.752
628.233, 212.000
628.715, 209.214
629.197, 212.697
629.679, 232.929
630.161, 259.660
630.643, 277.488
631.125, 284.390
631.607, 285.472
632.089, 283.542
632.572, 280.613
633.054, 285.620
633.536, 302.416
634.018, 316.971
634.500, 325.301
634.982, 332.692
635.464, 340.778
635.946, 350.483
636.429, 364.725
636.911, 387.258
637.393, 410.632
637.875, 429.421
638.357, 445.746
638.839, 463.191
639.321, 482.384
639.803, 501.076
640.286, 516.223
640.768, 530.404
641.250, 558.648
641.732, 608.571
642.214, 654.013
642.696, 689.163
643.178, 719.532
643.660, 744.261
