##NAMES=Gypsum
##RRUFFID=R060509
##IDEAL CHEMISTRY=CaSO_4_&#183;2H_2_O
##LOCALITY=Pierre Shale, Hermosa, Custer County, South Dakota, USA
##OWNER=RRUFF
##SOURCE=Michael Scott
##DESCRIPTION=Colorless tabular single crystal
##STATUS=The identification of this mineral has been confirmed by X-ray diffraction and chemical analysis
##URL=rruff.info/R060509
91.150, 0.000
91.632, 2.930
92.114, 8.990
92.596, 14.975
93.078, 19.057
93.560, 23.231
94.042, 29.529
94.525, 34.151
95.007, 36.357
95.489, 38.419
95.971, 43.935
96.453, 46.252
96.935, 52.302
97.417, 60.707
97.899, 58.758
98.381, 47.961
98.864, 34.523
99.346, 22.377
99.828, 11.314
100.310, 2.631
100.792, 2.371
101.274, 3.011
101.756, 4.276
102.238, 6.976
102.720, 10.494
103.203, 12.501
103.685, 13.641
104.167, 12.373
104.649, 8.464
105.131, 5.145
105.613, 7.146
106.095, 31.582
106.577, 69.398
107.060, 108.675
107.542, 150.464
108.024, 193.631
108.506, 237.979
108.988, 297.717
109.470, 344.574
109.952, 370.017
110.434, 364.769
110.916, 356.211
111.399, 340.633
111.881, 322.133
112.363, 310.805
112.845, 312.667
113.327, 319.045
113.809, 325.497
114.291, 324.631
114.773, 330.695
115.256, 349.165
115.738, 378.880
116.220, 410.309
116.702, 437.134
117.184, 465.028
117.666, 499.492
118.148, 546.523
118.630, 597.789
119.113, 647.957
119.595, 696.724
120.077, 746.169
120.559, 799.347
121.041, 853.992
121.523, 905.801
122.005, 949.654
122.487, 991.104
122.969, 1035.098
123.451, 1083.081
123.934, 1132.876
124.416, 1178.058
124.898, 1220.835
125.380, 1272.332
125.862, 1343.772
126.344, 1428.735
126.826, 1514.597
127.308, 1592.147
127.791, 1671.576
128.273, 1769.658
128.755, 1886.717
129.237, 2013.042
129.719, 2152.017
130.201, 2297.651
130.683, 2420.238
131.165, 2512.001
131.648, 2570.899
132.130, 2586.737
132.612, 2555.635
133.094, 2491.952
133.576, 2406.636
134.058, 2299.272
134.540, 2198.014
135.022, 2117.646
135.504, 2057.775
135.986, 2010.163
136.469, 1970.752
136.951, 1944.542
137.433, 1949.958
137.915, 1992.145
138.397, 2049.093
138.879, 2102.870
139.361, 2151.136
139.844, 2210.515
140.326, 2287.188
140.808, 2380.369
141.290, 2466.699
141.772, 2550.902
142.254, 2623.695
142.736, 2675.138
143.218, 2707.972
143.700, 2714.866
144.182, 2693.232
144.665, 2641.291
145.147, 2568.810
145.629, 2474.657
146.111, 2360.243
146.593, 2229.184
147.075, 2063.239
147.557, 1899.057
148.040, 1748.988
148.522, 1613.763
149.004, 1491.234
149.486, 1383.098
149.968, 1288.565
150.450, 1202.379
150.932, 1124.301
151.414, 1053.848
151.896, 991.671
152.378, 936.357
152.861, 889.522
153.343, 855.141
153.825, 832.362
154.307, 806.963
154.789, 771.707
155.271, 736.232
155.753, 707.755
156.235, 690.669
156.718, 678.334
157.200, 668.820
157.682, 661.577
158.164, 659.011
158.646, 663.145
159.128, 672.287
159.610, 683.891
160.092, 698.122
160.574, 713.436
161.057, 729.355
161.539, 746.390
162.021, 762.921
162.503, 776.864
162.985, 789.583
163.467, 804.353
163.949, 818.988
164.431, 838.017
164.913, 865.352
165.396, 905.153
165.878, 948.325
166.360, 987.600
166.842, 1025.131
167.324, 1069.842
167.806, 1125.764
168.288, 1191.907
168.770, 1267.234
169.253, 1357.050
169.735, 1452.047
170.217, 1544.361
170.699, 1634.445
171.181, 1729.095
171.663, 1833.167
172.145, 1944.215
172.627, 2062.043
173.109, 2183.338
173.592, 2312.688
174.074, 2458.047
174.556, 2619.366
175.038, 2785.886
175.520, 2949.738
176.002, 3112.620
176.484, 3272.490
176.966, 3443.271
177.449, 3610.010
177.931, 3749.606
178.413, 3861.806
178.895, 3944.701
179.377, 4004.937
179.859, 4037.724
180.341, 4018.322
180.823, 3918.810
181.305, 3756.793
181.788, 3569.887
182.270, 3356.905
182.752, 3128.552
183.234, 2901.032
183.716, 2672.664
184.198, 2448.245
184.680, 2220.331
185.162, 1997.632
185.645, 1794.874
186.127, 1619.584
186.609, 1465.736
187.091, 1323.065
187.573, 1192.223
188.055, 1077.609
188.537, 988.728
189.019, 923.088
189.501, 863.344
189.984, 804.428
190.466, 747.734
190.948, 699.501
191.430, 660.005
191.912, 626.462
192.394, 594.076
192.876, 563.186
193.358, 540.021
193.840, 530.426
194.323, 532.581
194.805, 529.135
195.287, 518.464
195.769, 506.501
196.251, 501.697
196.733, 504.250
197.215, 512.410
197.697, 525.682
198.180, 544.368
198.662, 566.785
199.144, 593.704
199.626, 623.410
200.108, 652.159
200.590, 678.581
201.072, 708.662
201.554, 746.155
202.036, 791.795
202.519, 840.237
203.001, 891.289
203.483, 945.124
203.965, 1002.618
204.447, 1063.993
204.929, 1127.281
205.411, 1189.655
205.893, 1250.876
206.376, 1317.549
206.858, 1393.929
207.340, 1475.904
207.822, 1546.585
208.304, 1606.873
208.786, 1653.318
209.268, 1683.170
209.750, 1696.680
210.232, 1694.446
210.715, 1676.570
211.197, 1643.065
211.679, 1593.180
212.161, 1523.779
212.643, 1443.548
213.125, 1359.628
213.607, 1269.272
214.089, 1179.033
214.572, 1089.894
215.054, 1002.884
215.536, 918.916
216.018, 835.992
216.500, 758.355
216.982, 690.069
217.464, 633.946
217.946, 581.402
218.428, 530.711
218.911, 481.147
219.393, 436.440
219.875, 396.869
220.357, 361.355
220.839, 329.045
221.321, 299.946
221.803, 273.519
222.285, 249.779
222.768, 228.629
223.250, 210.574
223.732, 195.907
224.214, 184.079
224.696, 174.210
225.178, 167.753
225.660, 160.859
226.142, 152.089
226.624, 140.698
227.107, 129.463
227.589, 118.439
228.071, 107.486
228.553, 96.689
229.035, 86.256
229.517, 75.370
229.999, 62.824
230.481, 44.871
230.964, 34.277
231.446, 34.647
231.928, 41.574
232.410, 42.442
232.892, 33.983
233.374, 24.163
233.856, 16.730
234.338, 11.922
234.820, 8.917
235.303, 7.946
235.785, 8.767
236.267, 11.173
236.749, 19.194
237.231, 23.442
237.713, 17.245
238.195, 9.253
238.677, 25.315
239.160, 25.980
239.642, 14.285
240.124, 4.721
240.606, 4.130
241.088, 9.084
241.570, 6.746
242.052, 10.794
242.534, 18.893
243.016, 10.058
243.499, 11.883
243.981, 19.779
244.463, 5.549
244.945, 13.223
245.427, 24.894
245.909, 27.994
246.391, 26.456
246.873, 18.136
247.355, 4.125
247.838, 3.008
248.320, 0.724
248.802, 5.315
249.284, 11.670
249.766, 20.780
250.248, 24.698
250.730, 20.620
251.212, 9.072
251.695, 0.077
252.177, 7.858
252.659, 11.704
253.141, 7.454
253.623, 11.154
254.105, 23.752
254.587, 25.140
255.069, 15.840
255.551, 11.589
256.034, 14.294
256.516, 19.577
256.998, 24.299
257.480, 30.232
257.962, 31.205
258.444, 24.250
258.926, 9.720
259.408, 0.332
259.891, 5.112
260.373, 6.244
260.855, 4.200
261.337, 3.630
261.819, 7.828
262.301, 4.998
262.783, 4.706
263.265, 9.384
263.747, 7.278
264.229, 2.666
264.712, 0.568
265.194, 2.692
265.676, 2.379
266.158, 1.772
266.640, 9.634
267.122, 13.492
267.604, 11.717
268.086, 8.668
268.569, 10.080
269.051, 18.438
269.533, 22.127
270.015, 15.400
270.497, 0.914
270.979, 4.019
271.461, 10.482
271.943, 29.698
272.426, 39.109
272.908, 37.012
273.390, 33.068
273.872, 28.671
274.354, 24.090
274.836, 23.106
275.318, 26.475
275.800, 31.625
276.282, 36.733
276.765, 42.321
277.247, 43.729
277.729, 36.677
278.211, 23.010
278.693, 21.910
279.175, 36.374
279.657, 54.649
280.139, 63.735
280.621, 63.021
281.104, 61.049
281.586, 59.262
282.068, 58.016
282.550, 59.973
283.032, 65.692
283.514, 72.347
283.996, 75.656
284.478, 75.675
284.961, 79.927
285.443, 92.876
285.925, 111.525
286.407, 122.297
286.889, 124.448
287.371, 124.123
287.853, 128.137
288.335, 136.011
288.818, 141.815
289.300, 142.089
289.782, 139.580
290.264, 143.411
290.746, 154.011
291.228, 165.941
291.710, 173.324
292.192, 176.915
292.674, 181.542
293.156, 188.794
293.639, 198.063
294.121, 206.169
294.603, 212.884
295.085, 223.450
295.567, 247.228
296.049, 279.847
296.531, 306.254
297.013, 320.343
297.496, 327.913
297.978, 336.156
298.460, 345.169
298.942, 358.282
299.424, 380.214
299.906, 408.002
300.388, 436.271
300.870, 465.110
301.353, 492.724
301.835, 511.676
302.317, 523.359
302.799, 543.126
303.281, 593.459
303.763, 658.413
304.245, 708.650
304.727, 729.656
305.209, 742.308
305.691, 766.924
306.174, 801.834
306.656, 838.232
307.138, 872.032
307.620, 903.915
308.102, 934.861
308.584, 964.557
309.066, 995.663
309.548, 1033.644
310.031, 1075.423
310.513, 1111.773
310.995, 1138.567
311.477, 1156.884
311.959, 1167.829
312.441, 1170.067
312.923, 1169.639
313.405, 1171.984
313.888, 1173.762
314.370, 1166.128
314.852, 1140.038
315.334, 1106.891
315.816, 1075.688
316.298, 1050.990
316.780, 1025.448
317.262, 992.614
317.744, 954.789
318.227, 919.546
318.709, 898.332
319.191, 873.266
319.673, 832.576
320.155, 765.081
320.637, 707.555
321.119, 677.868
321.601, 663.012
322.083, 639.854
322.566, 591.333
323.048, 543.752
323.530, 508.004
324.012, 489.107
324.494, 471.066
324.976, 454.529
325.458, 436.593
325.940, 413.148
326.422, 375.805
326.905, 341.166
327.387, 313.277
327.869, 293.408
328.351, 275.907
328.833, 262.135
329.315, 251.883
329.797, 243.653
330.280, 241.276
330.762, 235.400
331.244, 222.657
331.726, 201.838
332.208, 185.255
332.690, 173.730
333.172, 165.904
333.654, 160.548
334.136, 158.882
334.618, 157.265
335.101, 154.729
335.583, 151.377
336.065, 150.268
336.547, 153.911
337.029, 156.508
337.511, 151.538
337.993, 136.242
338.475, 123.106
338.958, 113.826
339.440, 108.155
339.922, 107.067
340.404, 112.937
340.886, 115.801
341.368, 104.559
341.850, 77.849
342.332, 60.813
342.815, 58.537
343.297, 66.538
343.779, 76.062
344.261, 87.660
344.743, 95.587
345.225, 95.240
345.707, 87.486
346.189, 78.032
346.671, 66.984
347.154, 55.835
347.636, 46.161
348.118, 38.117
348.600, 32.873
349.082, 33.262
349.564, 36.819
350.046, 36.407
350.528, 30.638
351.010, 24.806
351.493, 27.605
351.975, 35.838
352.457, 39.920
352.939, 29.296
353.421, 14.165
353.903, 9.470
354.385, 16.437
354.867, 24.668
355.349, 25.980
355.832, 22.799
356.314, 19.174
356.796, 15.942
357.278, 13.527
357.760, 12.616
358.242, 13.161
358.724, 13.770
359.207, 15.304
359.689, 15.846
360.171, 13.431
360.653, 3.424
361.135, 5.932
361.617, 11.051
362.099, 12.386
362.581, 12.478
363.063, 9.895
363.546, 7.854
364.028, 8.622
364.510, 16.045
364.992, 21.799
365.474, 23.261
365.956, 21.583
366.438, 20.401
366.920, 20.212
367.402, 20.581
367.885, 21.387
368.367, 23.025
368.849, 24.316
369.331, 26.640
369.813, 28.312
370.295, 26.179
370.777, 17.241
371.259, 8.200
371.741, 0.518
372.224, 10.717
372.706, 10.818
373.188, 5.431
373.670, 26.237
374.152, 37.196
374.634, 36.019
375.116, 30.525
375.598, 20.710
376.081, 7.199
376.563, 1.144
377.045, 3.408
377.527, 2.667
378.009, 1.031
378.491, 1.685
378.973, 3.067
379.455, 2.715
379.938, 0.653
380.420, 3.643
380.902, 10.467
381.384, 16.786
381.866, 18.429
382.348, 17.042
382.830, 22.359
383.312, 37.667
383.794, 55.464
384.276, 63.008
384.759, 61.922
385.241, 60.873
385.723, 66.728
386.205, 75.350
386.687, 77.045
387.169, 69.226
387.651, 66.117
388.134, 87.325
388.616, 122.596
389.098, 152.069
389.580, 160.364
390.062, 163.065
390.544, 171.925
391.026, 187.416
391.508, 207.006
391.990, 233.055
392.473, 260.882
392.955, 286.054
393.437, 298.750
393.919, 316.496
394.401, 348.325
394.883, 392.195
395.365, 436.384
395.847, 472.793
396.329, 511.747
396.812, 558.735
397.294, 613.751
397.776, 678.309
398.258, 746.511
398.740, 823.845
399.222, 923.676
399.704, 1058.078
400.186, 1203.169
400.668, 1350.517
401.151, 1495.303
401.633, 1658.415
402.115, 1843.092
402.597, 2043.612
403.079, 2254.851
403.561, 2473.909
404.043, 2711.506
404.525, 2969.209
405.008, 3247.582
405.490, 3533.348
405.972, 3821.615
406.454, 4130.796
406.936, 4477.694
407.418, 4863.812
407.900, 5290.212
408.382, 5757.141
408.865, 6268.003
409.347, 6835.185
409.829, 7454.149
410.311, 8123.806
410.793, 8863.385
411.275, 9654.722
411.757, 10439.229
412.239, 11247.667
412.721, 11943.685
413.203, 12395.281
413.686, 12596.334
414.168, 12511.978
414.650, 12047.372
415.132, 11329.566
415.614, 10459.149
416.096, 9444.343
416.578, 8401.094
417.060, 7354.700
417.543, 6350.110
418.025, 5479.799
418.507, 4792.631
418.989, 4209.816
419.471, 3696.396
419.953, 3254.751
420.435, 2868.348
420.917, 2552.539
421.400, 2280.323
421.882, 2038.569
422.364, 1831.294
422.846, 1643.682
423.328, 1472.461
423.810, 1318.760
424.292, 1183.305
424.774, 1068.950
425.256, 968.630
425.738, 881.624
426.221, 809.963
426.703, 742.689
427.185, 680.828
427.667, 622.315
428.149, 564.782
428.631, 504.748
429.113, 456.314
429.595, 425.434
430.078, 408.731
430.560, 382.611
431.042, 343.872
431.524, 303.064
432.006, 268.158
432.488, 239.924
432.970, 220.692
433.452, 213.519
433.935, 211.366
434.417, 200.375
434.899, 180.900
435.381, 159.675
435.863, 138.790
436.345, 119.042
436.827, 102.769
437.309, 90.300
437.791, 79.460
438.274, 66.698
438.756, 54.184
439.238, 46.269
439.720, 48.417
440.202, 52.579
440.684, 51.669
441.166, 46.495
441.648, 42.124
442.130, 41.540
442.613, 42.689
443.095, 43.882
443.577, 43.938
444.059, 45.565
444.541, 53.026
445.023, 62.392
445.505, 65.928
445.987, 53.551
446.470, 42.937
446.952, 40.256
447.434, 47.663
447.916, 54.657
448.398, 60.498
448.880, 66.547
449.362, 74.392
449.844, 85.844
450.327, 95.299
450.809, 102.068
451.291, 106.231
451.773, 107.219
452.255, 102.770
452.737, 101.558
453.219, 110.160
453.701, 129.052
454.183, 147.273
454.665, 164.681
455.148, 180.737
455.630, 194.958
456.112, 207.428
456.594, 218.253
457.076, 225.085
457.558, 231.108
458.040, 243.612
458.522, 262.469
459.005, 284.045
459.487, 306.255
459.969, 328.715
460.451, 350.796
460.933, 370.205
461.415, 392.305
461.897, 422.308
462.379, 457.888
462.862, 493.154
463.344, 525.980
463.826, 556.989
464.308, 584.415
464.790, 605.700
465.272, 633.893
465.754, 672.324
466.236, 718.905
466.718, 771.008
467.201, 835.872
467.683, 898.429
468.165, 951.721
468.647, 997.692
469.129, 1059.373
469.611, 1143.643
470.093, 1234.286
470.575, 1321.483
471.057, 1400.582
471.540, 1492.900
472.022, 1599.018
472.504, 1718.436
472.986, 1847.907
473.468, 1987.765
473.950, 2139.202
474.432, 2301.164
474.914, 2475.966
475.397, 2672.509
475.879, 2890.847
476.361, 3130.355
476.843, 3382.756
477.325, 3657.292
477.807, 3973.063
478.289, 4341.675
478.771, 4743.986
479.254, 5166.698
479.736, 5608.684
480.218, 6064.673
480.700, 6506.207
481.182, 6982.833
481.664, 7527.949
482.146, 8153.642
482.628, 8803.803
483.110, 9433.741
483.592, 10086.582
484.075, 10808.103
484.557, 11630.453
485.039, 12489.268
485.521, 13343.194
486.003, 14213.833
486.485, 15176.979
486.967, 16276.379
487.449, 17424.232
487.931, 18584.959
488.414, 19732.059
488.896, 20959.127
489.378, 22331.736
489.860, 23709.771
490.342, 24971.270
490.824, 26131.668
491.306, 27106.369
491.789, 27934.852
492.271, 28548.938
492.753, 28738.482
493.235, 28498.400
493.717, 27884.504
494.199, 26847.016
494.681, 25469.799
495.163, 23894.939
495.645, 22118.986
496.128, 20287.779
496.610, 18524.240
497.092, 16822.680
497.574, 15245.983
498.056, 13777.335
498.538, 12434.549
499.020, 11239.229
499.502, 10178.934
499.984, 9224.865
500.467, 8365.681
500.949, 7592.262
501.431, 6908.228
501.913, 6320.884
502.395, 5789.417
502.877, 5319.642
503.359, 4899.678
503.841, 4516.298
504.323, 4176.297
504.806, 3863.548
505.288, 3575.807
505.770, 3315.354
506.252, 3079.019
506.734, 2870.268
507.216, 2678.999
507.698, 2500.190
508.181, 2333.943
508.663, 2178.691
509.145, 2033.505
509.627, 1900.860
510.109, 1780.918
510.591, 1673.980
511.073, 1577.603
511.555, 1495.915
512.037, 1422.183
512.519, 1343.891
513.002, 1261.581
513.484, 1182.240
513.966, 1110.983
514.448, 1045.841
514.930, 984.265
515.412, 923.880
515.894, 869.581
516.376, 827.158
516.859, 792.323
517.341, 755.946
517.823, 714.662
518.305, 671.829
518.787, 626.394
519.269, 576.270
519.751, 536.454
520.233, 511.061
520.716, 492.024
521.198, 474.481
521.680, 460.921
522.162, 441.033
522.644, 411.303
523.126, 377.029
523.608, 352.219
524.090, 338.114
524.572, 322.912
525.055, 299.753
525.537, 270.915
526.019, 243.299
526.501, 216.882
526.983, 196.320
527.465, 191.257
527.947, 194.562
528.429, 191.931
528.911, 179.268
529.394, 161.168
529.876, 137.172
530.358, 110.573
530.840, 88.199
531.322, 73.153
531.804, 63.328
532.286, 59.740
532.768, 62.943
533.250, 63.470
533.733, 57.795
534.215, 49.822
534.697, 42.482
535.179, 38.346
535.661, 30.579
536.143, 16.682
536.625, 0.074
537.107, 11.018
537.589, 15.141
538.072, 19.186
538.554, 26.504
539.036, 36.152
539.518, 39.551
540.000, 36.131
540.482, 31.541
540.964, 31.139
541.446, 33.559
541.929, 34.582
542.411, 33.330
542.893, 31.210
543.375, 30.160
543.857, 29.402
544.339, 27.214
544.821, 20.135
545.303, 13.650
545.786, 10.333
546.268, 10.342
546.750, 14.528
547.232, 32.668
547.714, 48.305
548.196, 50.406
548.678, 26.481
549.160, 11.067
549.643, 9.554
550.125, 14.218
550.607, 15.099
551.089, 11.262
551.571, 5.666
552.053, 1.993
552.535, 10.804
553.017, 17.013
553.499, 20.539
553.982, 22.084
554.464, 18.977
554.946, 13.748
555.428, 18.333
555.910, 34.547
556.392, 52.259
556.874, 60.738
557.356, 63.679
557.838, 67.889
558.321, 74.990
558.803, 84.878
559.285, 100.806
559.767, 120.054
560.249, 134.269
560.731, 131.324
561.213, 130.589
561.695, 143.119
562.177, 172.936
562.660, 196.664
563.142, 207.078
563.624, 215.291
564.106, 230.360
564.588, 257.234
565.070, 277.098
565.552, 286.462
566.034, 289.843
566.516, 296.286
566.999, 305.937
567.481, 317.221
567.963, 328.214
568.445, 340.769
568.927, 363.844
569.409, 396.779
569.891, 427.789
570.373, 446.444
570.856, 457.757
571.338, 467.883
571.820, 477.435
572.302, 487.878
572.784, 498.939
573.266, 511.923
573.748, 528.820
574.230, 557.140
574.713, 581.982
575.195, 597.252
575.677, 604.444
576.159, 613.172
576.641, 622.636
577.123, 634.965
577.605, 651.335
578.087, 672.048
578.570, 695.533
579.052, 724.228
579.534, 751.087
580.016, 768.084
580.498, 775.675
580.980, 779.136
581.462, 776.244
581.944, 775.951
582.426, 796.371
582.909, 832.609
583.391, 866.190
583.873, 887.178
584.355, 901.304
584.837, 912.322
585.319, 920.539
585.801, 928.220
586.283, 939.583
586.765, 948.731
587.248, 948.968
587.730, 927.359
588.212, 924.722
588.694, 964.996
589.176, 1017.460
589.658, 1047.260
590.140, 1041.360
590.622, 1041.740
591.104, 1057.274
591.587, 1082.852
592.069, 1101.904
592.551, 1114.399
593.033, 1122.964
593.515, 1122.199
593.997, 1118.141
594.479, 1137.804
594.961, 1181.615
595.443, 1222.764
595.926, 1233.452
596.408, 1229.716
596.890, 1234.198
597.372, 1253.086
597.854, 1278.918
598.336, 1312.041
598.818, 1348.264
599.300, 1380.443
599.783, 1402.117
600.265, 1425.598
600.747, 1451.845
601.229, 1481.626
601.711, 1521.031
602.193, 1575.948
602.675, 1631.096
603.157, 1677.885
603.640, 1713.970
604.122, 1759.512
604.604, 1815.380
605.086, 1876.525
605.568, 1942.722
606.050, 2012.528
606.532, 2079.040
607.014, 2136.752
607.497, 2194.369
607.979, 2262.043
608.461, 2337.629
608.943, 2416.090
609.425, 2498.387
609.907, 2580.874
610.389, 2659.418
610.871, 2734.929
611.353, 2818.209
611.836, 2921.638
612.318, 3025.760
612.800, 3119.143
613.282, 3197.502
613.764, 3281.859
614.246, 3376.157
614.728, 3471.134
615.210, 3558.868
615.692, 3639.499
616.175, 3712.450
616.657, 3778.874
617.139, 3836.942
617.621, 3887.184
