##NAMES=Hedenbergite
##RRUFFID=R060040
##IDEAL CHEMISTRY=CaFe^2+^Si_2_O_6_
##LOCALITY=Rio Marina, Elba, Italy
##OWNER=RRUFF
##SOURCE=University of Arizona Mineral Museum
##DESCRIPTION=Radial aggregate of green thin bladed crystals
##STATUS=The identification of this mineral has been confirmed by X-ray diffraction and chemical analysis
##URL=rruff.info/R060040
##MEASURED CHEMISTRY=Ca_1.00_(Fe^2+^_0.89_Mg_0.09_Mn_0.02_)_Î£=1_Si_2.00_O_6_
248.9564, 0.9861790
249.4385, 0.7893070
249.9206, 0.3376080
250.4027, 0.1002460
250.8848, 0.1568870
251.3670, 0.3367160
251.8491, 0.5076680
252.3312, 0.7099110
252.8133, 0.8148170
253.2954, 0.7763480
253.7775, 0.6050220
254.2597, 0.4642220
254.7418, 0.3309210
255.2239, 0.2578390
255.7060, 0.3135950
256.1881, 0.6052360
256.6703, 0.7647550
257.1524, 0.6924670
257.6345, 0.4245830
258.1166, 0.2789460
258.5987, 0.3015590
259.0808, 0.3801080
259.5630, 0.4367100
260.0451, 0.4632640
260.5272, 0.4901080
261.0093, 0.5281940
261.4914, 0.5703700
261.9735, 0.5835340
262.4557, 0.5854870
262.9378, 0.5288960
263.4199, 0.3541530
263.9020, 8.1789996E-03
264.3841, 0.2395900
264.8662, 0.2631530
265.3484, 0.1521420
265.8305, 0.1798860
266.3126, 0.3819240
266.7947, 0.6317370
267.2768, 0.8694760
267.7589, 1.118320
268.2411, 1.284416
268.7232, 1.343765
269.2053, 1.343559
269.6874, 1.395576
270.1695, 1.490627
270.6516, 1.664032
271.1338, 1.965958
271.6159, 2.440411
272.0980, 2.796757
272.5801, 3.013988
273.0622, 3.133186
273.5443, 3.209377
274.0265, 3.216904
274.5086, 3.262421
274.9907, 3.383945
275.4728, 3.576332
275.9549, 3.895863
276.4370, 4.371143
276.9192, 4.935860
277.4013, 5.507660
277.8834, 6.109875
278.3655, 6.592327
278.8476, 6.826050
279.3297, 6.801228
279.8118, 6.921238
280.2939, 7.189606
280.7761, 7.593918
281.2582, 8.167084
281.7403, 8.928688
282.2224, 9.644836
282.7045, 10.21981
283.1866, 10.66286
283.6688, 11.05956
284.1509, 11.39056
284.6330, 11.73887
285.1151, 12.22943
285.5972, 12.86126
286.0793, 13.50240
286.5615, 14.09789
287.0436, 14.66441
287.5257, 15.33768
288.0078, 16.15589
288.4899, 16.87698
288.9720, 17.08085
289.4542, 16.84175
289.9363, 16.96304
290.4184, 17.81833
290.9005, 19.13451
291.3826, 20.19951
291.8647, 21.01123
292.3469, 21.66283
292.8290, 22.14778
293.3111, 22.51649
293.7932, 23.04255
294.2753, 23.85714
294.7574, 24.79854
295.2396, 25.48822
295.7217, 25.94436
296.2038, 26.44326
296.6859, 27.33136
297.1680, 28.43020
297.6501, 29.19949
298.1323, 29.39319
298.6144, 29.48450
299.0965, 30.27185
299.5786, 31.66435
300.0607, 32.99701
300.5428, 33.77961
301.0250, 34.24334
301.5071, 34.84141
301.9892, 35.66500
302.4713, 36.54146
302.9534, 37.30396
303.4355, 37.96316
303.9177, 38.59280
304.3998, 39.34073
304.8819, 40.04560
305.3640, 40.46749
305.8461, 40.57520
306.3282, 40.44909
306.8104, 40.14201
307.2925, 39.68787
307.7746, 39.14249
308.2567, 38.49961
308.7388, 37.75419
309.2209, 36.94009
309.7031, 36.06929
310.1852, 34.99094
310.6673, 33.43159
311.1494, 31.64456
311.6315, 29.98458
312.1136, 28.64731
312.5958, 27.41048
313.0779, 26.06524
313.5600, 24.62394
314.0421, 23.27260
314.5242, 22.21890
315.0063, 21.30488
315.4885, 20.37178
315.9706, 19.21945
316.4527, 18.15058
316.9348, 17.30249
317.4169, 16.65253
317.8990, 16.09611
318.3812, 15.59049
318.8633, 15.16236
319.3454, 14.83671
319.8275, 14.62973
320.3096, 14.51450
320.7917, 14.50371
321.2739, 14.58730
321.7560, 14.72867
322.2381, 14.87402
322.7202, 15.09395
323.2023, 15.43494
323.6844, 15.95190
324.1666, 16.47254
324.6487, 17.02788
325.1308, 17.55415
325.6129, 17.94725
326.0950, 17.87471
326.5771, 17.96075
327.0593, 18.44780
327.5414, 19.46618
328.0235, 20.37503
328.5056, 21.03033
328.9877, 21.60150
329.4698, 22.25724
329.9520, 23.21163
330.4341, 23.99932
330.9162, 24.40041
331.3983, 24.38875
331.8804, 24.84087
332.3625, 26.04413
332.8447, 27.45692
333.3268, 28.69768
333.8089, 29.71592
334.2910, 30.65445
334.7731, 31.50399
335.2552, 32.28910
335.7374, 33.10863
336.2195, 33.95956
336.7016, 34.86020
337.1837, 35.88738
337.6658, 37.16190
338.1479, 38.11419
338.6301, 38.64411
339.1122, 38.88014
339.5943, 39.15472
340.0764, 39.55964
340.5585, 39.68686
341.0406, 39.31192
341.5228, 38.40503
342.0049, 37.37744
342.4870, 36.21560
342.9691, 34.94421
343.4512, 33.60721
343.9333, 32.19191
344.4155, 30.72095
344.8976, 29.18364
345.3797, 27.59412
345.8618, 26.09553
346.3439, 24.66200
346.8260, 23.40646
347.3082, 22.45337
347.7903, 21.78210
348.2724, 21.21158
348.7545, 20.67256
349.2366, 20.23205
349.7188, 20.07986
350.2009, 20.19908
350.6830, 20.35899
351.1651, 20.27163
351.6472, 20.10471
352.1293, 20.28320
352.6115, 20.93093
353.0936, 21.77074
353.5757, 22.50313
354.0578, 23.17260
354.5399, 23.93290
355.0220, 24.83205
355.5042, 25.88105
355.9863, 27.09080
356.4684, 28.45282
356.9505, 29.95167
357.4326, 31.61212
357.9147, 33.39751
358.3969, 35.23513
358.8790, 37.06466
359.3611, 38.95855
359.8432, 41.06159
360.3253, 43.37893
360.8074, 45.57495
361.2896, 47.28480
361.7717, 48.89937
362.2538, 50.78178
362.7359, 53.28973
363.2180, 55.78716
363.7001, 57.90359
364.1823, 59.79283
364.6644, 61.96992
365.1465, 64.83219
365.6286, 67.85538
366.1107, 70.74273
366.5928, 73.27837
367.0750, 76.07487
367.5571, 79.47780
368.0392, 83.16560
368.5213, 86.61021
369.0034, 89.44008
369.4855, 92.28568
369.9677, 95.35014
370.4498, 98.66095
370.9319, 101.9176
371.4140, 105.2833
371.8961, 108.4882
372.3782, 111.2506
372.8604, 113.5482
373.3425, 115.4255
373.8246, 116.9475
374.3067, 118.0739
374.7888, 118.5564
375.2709, 118.4122
375.7531, 117.5687
376.2352, 115.9732
376.7173, 113.6217
377.1994, 110.5873
377.6815, 106.8078
378.1636, 102.3824
378.6458, 97.53394
379.1279, 92.17412
379.6100, 86.66153
380.0921, 80.98824
380.5742, 75.19257
381.0563, 69.65157
381.5385, 64.38583
382.0206, 59.34523
382.5027, 54.49927
382.9848, 49.83039
383.4669, 45.62209
383.9490, 42.00922
384.4312, 38.84280
384.9133, 35.73569
385.3954, 32.70395
385.8775, 29.85994
386.3596, 27.38117
386.8417, 25.19052
387.3239, 23.07566
387.8060, 20.98040
388.2881, 19.02329
388.7702, 17.35698
389.2523, 15.93402
389.7344, 14.62962
390.2166, 13.35003
390.6987, 12.15607
391.1808, 11.10784
391.6629, 10.20489
392.1450, 9.412979
392.6271, 8.831787
393.1093, 8.322712
393.5914, 7.707664
394.0735, 6.693779
394.5556, 5.755341
395.0377, 5.137585
395.5198, 4.822445
396.0020, 4.565506
396.4841, 4.358456
396.9662, 4.147835
397.4483, 3.886591
397.9304, 3.455692
398.4125, 3.106754
398.8947, 2.923599
399.3768, 2.849922
399.8589, 2.745445
400.3410, 2.608742
400.8231, 2.431835
401.3052, 2.217270
401.7874, 1.973312
402.2695, 1.650286
402.7516, 1.076008
403.2337, 0.5435520
403.7158, 0.4319880
404.1979, 1.045883
404.6800, 1.423061
405.1621, 1.314203
405.6443, 0.7964970
406.1264, 0.4375840
406.6085, 0.2638950
407.0906, 0.1779020
407.5727, 0.1356450
408.0548, 0.1434800
408.5370, 8.7112002E-02
409.0191, 6.6661999E-02
409.5012, 0.2436890
409.9833, 0.2777960
410.4654, 0.1705860
410.9475, 0.1016520
411.4297, 0.1895690
411.9118, 0.3848800
412.3939, 0.5261710
412.8760, 0.6089710
413.3581, 0.6548000
413.8402, 0.6658210
414.3224, 0.6542170
414.8045, 0.6567630
415.2866, 0.7111300
415.7687, 0.7508450
416.2508, 0.6554150
416.7329, 0.4605920
417.2151, 0.3268450
417.6972, 0.3888610
418.1793, 0.5369740
418.6614, 0.6777860
419.1435, 0.8025090
419.6256, 0.8902720
420.1078, 0.9200000
420.5899, 0.9062440
421.0720, 0.8734000
421.5541, 0.8332290
422.0362, 0.7720300
422.5183, 0.6587580
423.0005, 0.4960380
423.4826, 0.3912810
423.9647, 0.4369890
424.4468, 0.5074940
424.9289, 0.5196210
425.4110, 0.4076040
425.8932, 0.3093220
426.3753, 0.2238540
426.8574, 0.1561160
427.3395, 0.1206670
427.8216, 0.1518940
428.3037, 0.1709380
428.7859, 0.1595000
429.2680, 0.1223200
429.7501, 4.1850000E-03
430.2322, 0.2618030
430.7143, 0.5127350
431.1964, 0.5288520
431.6786, 0.2472210
432.1607, 6.7055002E-02
432.6428, 9.0372004E-02
433.1249, 0.2535080
433.6070, 0.3561780
434.0891, 0.3950500
434.5713, 0.4174400
435.0534, 0.4490740
435.5355, 0.4897310
436.0176, 0.5414510
436.4997, 0.6085240
436.9818, 0.6709400
437.4640, 0.7060720
437.9461, 0.7170450
438.4282, 0.7127670
438.9103, 0.6814270
439.3924, 0.6464630
439.8745, 0.6415200
440.3567, 0.6634120
440.8388, 0.6844290
441.3209, 0.6738550
441.8030, 0.6585030
442.2851, 0.6721310
442.7672, 0.7419930
443.2494, 0.7943420
443.7315, 0.7954390
444.2136, 0.7512110
444.6957, 0.6733650
445.1778, 0.4869140
445.6599, 0.3378140
446.1421, 0.2968060
446.6242, 0.3760600
447.1063, 0.4587380
447.5884, 0.5379140
448.0705, 0.6085510
448.5526, 0.6669900
449.0348, 0.7271420
449.5169, 0.7538930
449.9990, 0.7190110
450.4811, 0.6526200
450.9632, 0.6424690
451.4453, 0.7032180
451.9275, 0.7942280
452.4096, 0.9392110
452.8917, 1.156097
453.3738, 1.143566
453.8559, 0.8302270
454.3380, 0.4584200
454.8202, 0.3018740
455.3023, 0.3638340
455.7844, 0.4494090
456.2665, 0.5195940
456.7486, 0.5844040
457.2307, 0.6927490
457.7129, 0.8367810
458.1950, 0.9205070
458.6771, 0.7762410
459.1592, 0.5486550
459.6413, 0.5834430
460.1234, 0.9350150
460.6056, 1.285614
461.0877, 1.286768
461.5698, 1.106396
462.0519, 1.031588
462.5340, 1.335037
463.0161, 1.621361
463.4983, 1.576439
463.9804, 1.270195
464.4625, 1.019287
464.9446, 0.9612350
465.4267, 0.9911860
465.9088, 1.060514
466.3910, 1.192720
466.8731, 1.278828
467.3552, 1.201414
467.8373, 1.097666
468.3194, 1.145279
468.8015, 1.589298
469.2837, 1.890167
469.7658, 1.916529
470.2479, 1.698662
470.7300, 1.522486
471.2121, 1.376898
471.6942, 1.296061
472.1764, 1.329735
472.6585, 1.520121
473.1406, 1.583338
473.6227, 1.475363
474.1048, 1.313490
474.5869, 1.265249
475.0691, 1.327829
475.5512, 1.415487
476.0333, 1.492119
476.5154, 1.576313
476.9975, 1.766745
477.4796, 2.057541
477.9618, 2.272039
478.4439, 2.173983
478.9260, 1.934566
479.4081, 1.903860
479.8902, 2.180944
480.3723, 2.459507
480.8545, 2.428679
481.3366, 2.221775
481.8187, 2.065693
482.3008, 2.055817
482.7829, 2.126390
483.2650, 2.306999
483.7472, 2.572447
484.2293, 2.744682
484.7114, 2.649740
485.1935, 2.524031
485.6756, 2.510941
486.1577, 2.697245
486.6399, 2.856539
487.1220, 2.936388
487.6041, 3.000416
488.0862, 3.125908
488.5683, 3.318394
489.0504, 3.537355
489.5326, 3.785357
490.0147, 4.048634
490.4968, 4.269146
490.9789, 4.451746
491.4610, 4.590591
491.9431, 4.636343
492.4253, 4.583414
492.9074, 4.726086
493.3895, 5.139734
493.8716, 5.570957
494.3537, 5.597633
494.8358, 5.297590
495.3180, 5.133253
495.8001, 5.363173
496.2822, 5.734013
496.7643, 5.852320
497.2464, 5.748444
497.7285, 5.589848
498.2107, 5.445883
498.6928, 5.321619
499.1749, 5.223537
499.6570, 5.156496
500.1391, 5.095871
500.6212, 5.018784
501.1034, 4.943640
501.5855, 4.891420
502.0676, 4.850298
502.5497, 4.850534
503.0318, 4.894814
503.5139, 4.982782
503.9961, 5.118433
504.4782, 5.404854
504.9603, 5.648310
505.4424, 5.763031
505.9245, 5.707293
506.4066, 5.699867
506.8888, 5.753778
507.3709, 5.839121
507.8530, 5.905413
508.3351, 5.928305
508.8172, 6.083475
509.2993, 6.456846
509.7815, 6.927052
510.2636, 7.156357
510.7457, 7.149523
511.2278, 7.181669
511.7099, 7.421217
512.1920, 7.799326
512.6741, 8.186516
513.1563, 8.587776
513.6384, 8.997395
514.1205, 9.445511
514.6026, 9.885618
515.0847, 10.24734
515.5668, 10.47388
516.0490, 10.68126
516.5311, 10.96595
517.0132, 11.27483
517.4953, 11.51322
517.9774, 11.60669
518.4595, 11.66822
518.9417, 11.73608
519.4238, 11.81181
519.9059, 11.88472
520.3880, 12.03854
520.8701, 12.12704
521.3522, 12.04927
521.8344, 11.62015
522.3165, 11.45374
522.7986, 11.73262
523.2807, 12.11629
523.7628, 12.00130
524.2449, 11.29557
524.7271, 10.51898
525.2092, 9.767387
525.6913, 9.073059
526.1734, 8.559299
526.6555, 8.230724
527.1376, 7.935574
527.6198, 7.603918
528.1019, 7.237091
528.5840, 6.777626
529.0661, 6.204174
529.5482, 5.646740
530.0303, 5.189137
530.5125, 4.838259
530.9946, 4.572630
531.4767, 4.482620
531.9588, 4.401512
532.4409, 4.154963
532.9230, 3.808657
533.4052, 3.571608
533.8873, 3.669050
534.3694, 3.764584
534.8515, 3.675739
535.3336, 3.325184
535.8157, 3.169878
536.2979, 3.328228
536.7800, 3.570747
537.2621, 3.745100
537.7442, 3.842152
538.2263, 3.898840
538.7084, 3.915722
539.1906, 3.910385
539.6727, 3.875113
540.1548, 3.792591
540.6369, 3.849739
541.1190, 4.192785
541.6011, 4.690475
542.0833, 4.905846
542.5654, 4.854612
543.0475, 4.819613
543.5296, 5.079828
544.0117, 5.466208
544.4938, 5.683746
544.9760, 5.669405
545.4581, 5.673420
545.9402, 5.899006
546.4223, 6.246567
546.9044, 6.588964
547.3865, 6.958096
547.8687, 7.236773
548.3508, 7.266148
548.8329, 7.156023
549.3150, 7.258621
549.7971, 7.935062
550.2792, 8.525917
550.7614, 8.817337
551.2435, 8.785040
551.7256, 8.715805
552.2077, 8.598579
552.6898, 8.463915
553.1719, 8.366482
553.6541, 8.332338
554.1362, 8.118305
554.6183, 7.676102
555.1004, 7.103865
555.5825, 6.502991
556.0646, 5.891188
556.5468, 5.438156
557.0289, 5.316874
557.5110, 5.292324
557.9931, 4.959246
558.4752, 4.372608
558.9573, 3.832380
559.4395, 3.565554
559.9216, 3.390842
560.4037, 3.128448
560.8858, 2.741358
561.3679, 2.431229
561.8500, 2.368614
562.3322, 2.372944
562.8143, 2.286226
563.2964, 1.956329
563.7785, 1.695164
564.2606, 1.550003
564.7427, 1.477472
565.2249, 1.397284
565.7070, 1.312273
566.1891, 1.210472
566.6712, 1.059208
567.1533, 0.8840030
567.6354, 0.8658580
568.1176, 1.028131
568.5997, 1.204327
569.0818, 1.334751
569.5639, 1.392973
570.0460, 1.207436
570.5281, 0.7389550
571.0103, 0.2972640
571.4924, 0.2558140
571.9745, 0.4441050
572.4566, 0.5567260
572.9387, 0.4478680
573.4208, 0.3287470
573.9030, 0.3802600
574.3851, 0.5207980
574.8672, 0.5715690
575.3493, 0.3691180
575.8314, 0.1673530
576.3135, 5.4616999E-02
576.7957, 3.5355002E-02
577.2778, 5.5291999E-02
577.7599, 0.1927800
578.2420, 0.2801420
578.7241, 0.2118720
579.2062, 6.8640001E-02
579.6884, 0.2849480
580.1705, 0.4555210
580.6526, 0.5294840
581.1347, 0.3813340
581.6168, 2.1118000E-02
582.0989, 0.2072470
582.5811, 0.1976850
583.0632, 8.5524000E-02
583.5453, 0.1067180
584.0274, 0.2183020
584.5095, 0.2613640
584.9916, 7.6916002E-02
585.4738, 0.1590310
585.9559, 0.3101270
586.4380, 0.3706280
586.9201, 0.3342060
587.4022, 1.5627000E-02
587.8843, 0.2697120
588.3665, 0.2736820
588.8486, 0.1737210
589.3307, 0.4567180
589.8128, 0.3776110
590.2949, 0.1794720
590.7770, 6.7579001E-02
591.2592, 6.3786000E-02
591.7413, 0.1021160
592.2234, 0.2086730
592.7055, 0.3259050
593.1876, 0.3051200
593.6697, 0.1333100
594.1519, 1.8351000E-02
594.6340, 9.0573996E-02
595.1161, 9.3987003E-02
595.5982, 2.3668000E-02
596.0803, 0.1118030
596.5624, 0.2308350
597.0446, 0.2895830
597.5267, 0.2951930
598.0088, 0.2518770
598.4909, 0.1593460
598.9730, 3.5578001E-02
599.4551, 0.1874520
599.9373, 0.3968980
600.4194, 0.4809880
600.9015, 0.2984620
601.3836, 0.1663930
601.8657, 0.1307580
602.3478, 0.1729890
602.8300, 0.2834150
603.3121, 0.5508750
603.7942, 0.7066250
604.2763, 0.6516400
604.7584, 0.4544470
605.2405, 0.4111390
605.7227, 0.5450760
606.2048, 0.6650300
606.6869, 0.6324650
607.1690, 0.5055730
607.6511, 0.5086630
608.1332, 0.6430930
608.6154, 0.7584780
609.0975, 0.6695370
609.5796, 0.5134010
610.0617, 0.4971310
610.5438, 0.7027360
611.0259, 0.8775480
611.5081, 0.8420580
611.9902, 0.7132300
612.4723, 0.6296500
612.9544, 0.6100650
613.4365, 0.6554780
613.9186, 0.8192100
614.4008, 1.040709
614.8829, 1.183702
615.3650, 1.233225
615.8471, 1.224697
616.3292, 1.126167
616.8113, 0.9698890
617.2935, 1.015234
617.7756, 1.286888
618.2577, 1.561951
618.7398, 1.666302
619.2219, 1.660049
619.7040, 1.719284
620.1862, 1.856876
620.6683, 1.998970
621.1504, 2.071558
621.6325, 2.115892
622.1146, 2.187229
622.5967, 2.307829
623.0789, 2.435400
623.5610, 2.566942
624.0431, 2.690643
624.5252, 2.789410
625.0073, 2.865520
625.4894, 2.905252
625.9716, 2.840029
626.4537, 2.741835
626.9358, 2.886158
627.4179, 3.383471
627.9000, 3.811890
628.3821, 3.956728
628.8643, 3.882830
629.3464, 4.033564
629.8285, 4.413109
630.3106, 4.837709
630.7927, 5.235254
631.2748, 5.565222
631.7570, 5.695190
632.2391, 5.594049
632.7212, 5.548811
633.2033, 5.754837
633.6854, 6.138748
634.1675, 6.641491
634.6497, 7.405571
635.1318, 8.018702
635.6139, 8.199827
636.0960, 8.217449
636.5781, 8.492725
637.0602, 9.188206
637.5424, 9.868299
638.0245, 10.46288
638.5066, 11.01294
638.9887, 11.63780
639.4708, 12.33858
639.9529, 13.19341
640.4351, 14.29724
640.9172, 15.57003
641.3993, 16.70001
641.8814, 17.69519
642.3635, 18.73545
642.8456, 19.85430
643.3278, 21.11033
643.8099, 22.60152
644.2920, 24.33753
644.7741, 26.23733
645.2562, 28.28653
645.7383, 30.43718
646.2205, 32.63685
646.7026, 35.02813
647.1847, 37.19349
647.6668, 38.84372
648.1489, 40.48541
648.6310, 42.87606
649.1132, 46.26541
649.5953, 49.36348
650.0774, 51.84950
650.5595, 54.06477
651.0416, 56.85587
651.5237, 60.19386
652.0059, 63.66695
652.4880, 67.10074
652.9701, 70.58731
653.4522, 74.37154
653.9343, 78.43142
654.4164, 82.52981
654.8986, 86.57873
655.3807, 90.60789
655.8628, 94.65562
656.3449, 98.75909
656.8270, 102.5972
657.3091, 106.1561
657.7913, 109.4061
658.2734, 112.3709
658.7555, 115.2551
659.2376, 117.2298
659.7197, 118.3021
660.2018, 118.4475
660.6840, 117.6520
661.1661, 115.9142
661.6482, 113.1321
662.1303, 109.2032
662.6124, 104.4481
663.0945, 99.03413
663.5767, 93.13612
664.0588, 87.14735
664.5409, 81.14011
665.0230, 75.26685
665.5051, 69.59984
665.9872, 64.15974
666.4694, 58.99615
666.9515, 54.00333
667.4336, 49.41692
667.9157, 45.35088
668.3978, 41.79487
668.8799, 38.59317
669.3621, 35.85770
669.8442, 33.23621
670.3263, 30.46650
670.8084, 27.58037
671.2905, 25.28242
671.7726, 23.60851
672.2548, 22.17953
672.7369, 20.66579
673.2190, 19.18327
673.7011, 18.05593
674.1832, 17.34878
674.6653, 16.66375
675.1475, 15.62769
675.6296, 14.48506
676.1117, 13.51363
676.5938, 12.86371
677.0759, 12.21868
677.5580, 11.49906
678.0402, 10.75028
678.5223, 10.01459
679.0044, 9.223742
679.4865, 8.597918
679.9686, 8.201534
680.4507, 7.950535
680.9329, 7.663771
681.4150, 7.343952
681.8971, 6.967216
682.3792, 6.472763
682.8613, 5.965851
683.3434, 5.620903
683.8256, 5.423290
684.3077, 5.286064
684.7898, 5.278099
685.2719, 5.223804
685.7540, 4.940882
686.2361, 4.447227
686.7183, 4.052969
687.2004, 3.945505
687.6825, 3.862787
688.1646, 3.672016
688.6467, 3.346872
689.1288, 3.102846
689.6110, 2.951530
690.0931, 2.859650
690.5752, 2.797609
691.0573, 2.767611
691.5394, 2.834661
692.0215, 3.022385
692.5037, 3.158754
692.9858, 2.955690
693.4679, 2.600941
693.9500, 2.441088
694.4321, 2.629396
694.9142, 2.824686
695.3964, 2.816551
695.8785, 2.701841
696.3606, 2.604525
696.8427, 2.537493
697.3248, 2.507715
697.8069, 2.548252
698.2891, 2.612955
698.7712, 2.593582
699.2533, 2.456573
699.7354, 2.380913
700.2175, 2.446917
700.6996, 2.570442
701.1818, 2.527742
701.6639, 2.338957
702.1460, 2.140591
702.6281, 1.998701
703.1102, 1.887466
703.5923, 1.769096
704.0745, 1.651150
704.5566, 1.571777
705.0387, 1.631454
705.5208, 1.660057
706.0029, 1.519775
706.4850, 1.180506
706.9672, 1.031830
707.4493, 1.185387
707.9314, 1.371492
708.4135, 1.462315
708.8956, 1.456974
709.3777, 1.328806
709.8599, 1.057741
710.3420, 0.7872310
710.8241, 0.6385770
711.3062, 0.5913220
711.7883, 0.6203820
