##NAMES=Helvine
##RRUFFID=R060621
##IDEAL CHEMISTRY=Mn^2+^_4_(BeSiO_4_)_3_S
##LOCALITY=Foote mine, Kings Mountain District, Cleveland County, North Carolina, USA
##OWNER=RRUFF
##SOURCE=Michael Scott
##DESCRIPTION=Yellowish-brown tetrahedra
##STATUS=The identification of this mineral is confirmed by single-crystal X-ray diffraction and chemical analysis.
##URL=rruff.info/R060621
##MEASURED CHEMISTRY=(Mn^2+^_3.72_Zn_0.18_Fe^3+^_0.08_Ca_0.02_)_Σ=4_Be_3.00_((Si_0.97_Al_0.03_)_Σ=1_O_4_)_3_S_1.00_; BeO assumed by stoichiometry
121.041, 0.000
121.523, 222.695
122.005, 1191.590
122.487, 2478.832
122.969, 3917.438
123.451, 5431.805
123.934, 6990.582
124.416, 8520.980
124.898, 10055.477
125.380, 11686.504
125.862, 13489.273
126.344, 15371.375
126.826, 17361.953
127.308, 19547.523
127.791, 21424.883
128.273, 22612.312
128.755, 23082.531
129.237, 22690.336
129.719, 21034.375
130.201, 18397.922
130.683, 15620.828
131.165, 12713.488
131.648, 9885.883
132.130, 7591.172
132.612, 5997.055
133.094, 4854.980
133.576, 3954.988
134.058, 3245.668
134.540, 2664.688
135.022, 2395.008
135.504, 2431.199
135.986, 2572.043
136.469, 2832.488
136.951, 3156.445
137.433, 3521.375
137.915, 3961.574
138.397, 4269.082
138.879, 4392.762
139.361, 4339.047
139.844, 4026.211
140.326, 3383.395
140.808, 2552.918
141.290, 1800.969
141.772, 1121.477
142.254, 524.914
142.736, 18.535
143.218, 409.066
143.700, 725.266
144.182, 932.379
144.665, 1035.031
145.147, 1041.098
145.629, 922.477
146.111, 741.805
146.593, 544.719
147.075, 379.695
147.557, 127.762
148.040, 250.977
148.522, 760.406
149.004, 1233.656
149.486, 1648.629
149.968, 2041.223
150.450, 2445.402
150.932, 2868.180
151.414, 3306.207
151.896, 3750.355
152.378, 4201.141
152.861, 4694.074
153.343, 5262.445
153.825, 5876.207
154.307, 6479.598
154.789, 7120.070
155.271, 7710.957
155.753, 8243.473
156.235, 8767.500
156.718, 9124.293
157.200, 9207.766
157.682, 9092.215
158.164, 8976.859
158.646, 8855.980
159.128, 8781.094
159.610, 8780.215
160.092, 8817.141
160.574, 8965.941
161.057, 9218.031
161.539, 9581.211
162.021, 10122.371
162.503, 10919.617
162.985, 11876.402
163.467, 12924.148
163.949, 14049.434
164.431, 15286.031
164.913, 16671.781
165.396, 18216.266
165.878, 19810.664
166.360, 21432.359
166.842, 23003.297
167.324, 24485.211
167.806, 25818.254
168.288, 27138.363
168.770, 28541.730
169.253, 30055.855
169.735, 31616.480
170.217, 33200.672
170.699, 34798.840
171.181, 36381.117
171.663, 37988.938
172.145, 39543.172
172.627, 41064.594
173.109, 42687.262
173.592, 43998.617
174.074, 44749.766
174.556, 44902.598
175.038, 44327.785
175.520, 42874.871
176.002, 40622.125
176.484, 37710.035
176.966, 33852.996
177.449, 29618.738
177.931, 25619.875
178.413, 21848.688
178.895, 18437.594
179.377, 15595.289
179.859, 13240.609
180.341, 11256.539
180.823, 9678.988
181.305, 8407.562
181.788, 7324.230
182.270, 6425.832
182.752, 5664.723
183.234, 5011.641
183.716, 4460.129
184.198, 4011.648
184.680, 3681.234
185.162, 3453.320
185.645, 3273.512
186.127, 3146.176
186.609, 3049.320
187.091, 2956.043
187.573, 2867.477
188.055, 2795.879
188.537, 2752.258
189.019, 2733.070
189.501, 2715.238
189.984, 2688.430
190.466, 2677.473
190.948, 2749.602
191.430, 2909.266
191.912, 3058.633
192.394, 3123.070
192.876, 3110.957
193.358, 3118.715
193.840, 3167.375
194.323, 3235.434
194.805, 3278.199
195.287, 3298.367
195.769, 3281.828
196.251, 3220.766
196.733, 3116.605
197.215, 2968.465
197.697, 2766.730
198.180, 2521.797
198.662, 2268.840
199.144, 2006.008
199.626, 1744.609
200.108, 1483.766
200.590, 1212.004
201.072, 952.469
201.554, 721.828
202.036, 525.824
202.519, 341.930
203.001, 167.645
203.483, 29.543
203.965, 34.578
204.447, 13.191
204.929, 19.199
205.411, 46.207
205.893, 63.445
206.376, 53.465
206.858, 6.531
207.340, 56.488
207.822, 100.176
208.304, 116.156
208.786, 138.457
209.268, 179.461
209.750, 239.758
210.232, 308.270
210.715, 401.598
211.197, 483.652
211.679, 474.078
212.161, 340.438
212.643, 185.695
213.125, 57.426
213.607, 34.621
214.089, 151.539
214.572, 320.465
215.054, 503.531
215.536, 596.898
216.018, 573.844
216.500, 507.316
216.982, 420.051
217.464, 280.891
217.946, 207.730
218.428, 213.883
218.911, 288.883
219.393, 399.477
219.875, 570.637
220.357, 737.141
220.839, 843.449
221.321, 841.172
221.803, 906.781
222.285, 1076.734
222.768, 1339.785
223.250, 1592.266
223.732, 1836.652
224.214, 2074.504
224.696, 2308.707
225.178, 2529.527
225.660, 2767.859
226.142, 3020.758
226.624, 3291.840
227.107, 3615.203
227.589, 4014.629
228.071, 4437.152
228.553, 4828.730
229.035, 5183.574
229.517, 5523.754
229.999, 5850.809
230.481, 6166.488
230.964, 6481.336
231.446, 6805.477
231.928, 7118.562
232.410, 7395.348
232.892, 7634.547
233.374, 7842.781
233.856, 8038.719
234.338, 8239.762
234.820, 8288.844
235.303, 8142.094
235.785, 7879.957
236.267, 7603.207
236.749, 7340.484
237.231, 7014.102
237.713, 6580.602
238.195, 6004.793
238.677, 5513.977
239.160, 5130.078
239.642, 4817.488
240.124, 4527.730
240.606, 4270.145
241.088, 4020.945
241.570, 3770.934
242.052, 3514.266
242.534, 3279.359
243.016, 3066.770
243.499, 2874.230
243.981, 2697.492
244.463, 2532.090
244.945, 2385.281
245.427, 2264.414
245.909, 2186.250
246.391, 2072.148
246.873, 1899.113
247.355, 1696.191
247.838, 1528.062
248.320, 1412.812
248.802, 1298.742
249.284, 1162.723
249.766, 989.984
250.248, 844.020
250.730, 737.508
251.212, 656.062
251.695, 568.367
252.177, 480.219
252.659, 383.477
253.141, 269.633
253.623, 117.645
254.105, 14.457
254.587, 22.348
255.069, 14.289
255.551, 19.090
256.034, 44.020
256.516, 67.473
256.998, 87.023
257.480, 124.074
257.962, 97.723
258.444, 20.062
258.926, 191.254
259.408, 307.957
259.891, 337.133
260.373, 363.734
260.855, 429.742
261.337, 544.980
261.819, 657.496
262.301, 761.469
262.783, 867.242
263.265, 1008.344
263.747, 1201.977
264.229, 1396.762
264.712, 1556.535
265.194, 1651.035
265.676, 1784.152
266.158, 1972.914
266.640, 2211.746
267.122, 2447.992
267.604, 2665.762
268.086, 2883.711
268.569, 3119.695
269.051, 3393.062
269.533, 3642.898
270.015, 3849.273
270.497, 4047.410
270.979, 4329.746
271.461, 4707.391
271.943, 5128.211
272.426, 5571.445
272.908, 6045.172
273.390, 6465.527
273.872, 6797.398
274.354, 7083.961
274.836, 7478.840
275.318, 8010.430
275.800, 8537.438
276.282, 8956.746
276.765, 9257.105
277.247, 9563.160
277.729, 9895.938
278.211, 10235.496
278.693, 10527.402
279.175, 10763.375
279.657, 10965.246
280.139, 11157.363
280.621, 11341.801
281.104, 11462.887
281.586, 11513.406
282.068, 11496.449
282.550, 11416.406
283.032, 11271.371
283.514, 11078.062
283.996, 10840.656
284.478, 10560.750
284.961, 10259.316
285.443, 9936.668
285.925, 9597.277
286.407, 9243.609
286.889, 8873.148
287.371, 8527.578
287.853, 8242.586
288.335, 8012.188
288.818, 7787.598
289.300, 7562.973
289.782, 7344.570
290.264, 7137.301
290.746, 6940.664
291.228, 6786.293
291.710, 6719.531
292.192, 6718.094
292.674, 6692.031
293.156, 6628.969
293.639, 6539.758
294.121, 6430.113
294.603, 6304.383
295.085, 6193.195
295.567, 6143.156
296.049, 6125.703
296.531, 6058.992
297.013, 5927.352
297.496, 5764.527
297.978, 5598.562
298.460, 5436.207
298.942, 5301.824
299.424, 5209.809
299.906, 5156.777
300.388, 5139.430
300.870, 5162.016
301.353, 5199.301
301.835, 5211.398
302.317, 5207.652
302.799, 5228.770
303.281, 5332.758
303.763, 5459.203
304.245, 5522.805
304.727, 5507.777
305.209, 5445.324
305.691, 5361.410
306.174, 5251.512
306.656, 5107.098
307.138, 4913.527
307.620, 4688.332
308.102, 4452.641
308.584, 4211.047
309.066, 3947.844
309.548, 3584.789
310.031, 3195.922
310.513, 2912.535
310.995, 2933.727
311.477, 2990.340
311.959, 2860.152
312.441, 2504.566
312.923, 2121.020
313.405, 1802.434
313.888, 1529.582
314.370, 1279.754
314.852, 956.789
315.334, 715.629
315.816, 716.000
316.298, 1008.223
316.780, 1197.254
317.262, 1017.961
317.744, 668.672
318.227, 393.465
318.709, 336.258
319.191, 304.848
319.673, 216.957
320.155, 63.984
320.637, 60.832
321.119, 138.113
321.601, 173.141
322.083, 171.203
322.566, 62.953
323.048, 9.395
323.530, 22.238
324.012, 163.453
324.494, 242.098
324.976, 180.184
325.458, 76.699
325.940, 8.355
326.422, 40.039
326.905, 46.621
327.387, 2.707
327.869, 89.301
328.351, 173.469
328.833, 265.621
329.315, 338.559
329.797, 375.336
330.280, 363.031
330.762, 332.516
331.244, 271.582
331.726, 189.832
332.208, 148.391
332.690, 190.398
333.172, 224.992
333.654, 196.930
334.136, 65.328
334.618, 40.141
335.101, 115.109
335.583, 158.578
336.065, 162.805
336.547, 110.680
337.029, 53.531
337.511, 22.812
337.993, 28.812
338.475, 19.586
338.958, 10.367
339.440, 49.414
339.922, 66.250
340.404, 51.680
340.886, 50.750
341.368, 99.625
341.850, 200.859
342.332, 254.930
342.815, 245.953
343.297, 219.828
343.779, 259.773
344.261, 369.625
344.743, 461.422
345.225, 476.852
345.707, 436.852
346.189, 468.266
346.671, 582.352
347.154, 716.445
347.636, 777.039
348.118, 781.477
348.600, 833.961
349.082, 1008.719
349.564, 1246.008
350.046, 1415.672
350.528, 1514.234
351.010, 1586.375
351.493, 1658.555
351.975, 1732.703
352.457, 1819.484
352.939, 1938.164
353.421, 2056.367
353.903, 2127.750
354.385, 2157.539
354.867, 2186.844
355.349, 2262.703
355.832, 2352.625
356.314, 2411.758
356.796, 2411.336
357.278, 2405.062
357.760, 2459.117
358.242, 2550.297
358.724, 2590.984
359.207, 2486.812
359.689, 2340.898
360.171, 2237.703
360.653, 2212.438
361.135, 2191.688
361.617, 2132.664
362.099, 2052.867
362.581, 1993.250
363.063, 2009.453
363.546, 2014.055
364.028, 1954.914
364.510, 1799.422
364.992, 1660.094
365.474, 1584.234
365.956, 1533.727
366.438, 1451.836
366.920, 1292.266
367.402, 1138.609
367.885, 1014.414
368.367, 925.438
368.849, 849.727
369.331, 777.844
369.813, 724.984
370.295, 708.414
370.777, 767.219
371.259, 805.734
371.741, 807.828
372.224, 773.641
372.706, 718.820
373.188, 608.547
373.670, 517.898
374.152, 516.680
374.634, 643.680
375.116, 734.844
375.598, 759.648
376.081, 734.094
376.563, 725.133
377.045, 737.938
377.527, 751.273
378.009, 763.102
378.491, 773.305
378.973, 728.383
379.455, 615.750
379.938, 472.984
380.420, 371.086
380.902, 306.875
381.384, 264.875
381.866, 232.352
382.348, 214.742
382.830, 235.422
383.312, 304.242
383.794, 379.047
384.276, 393.953
384.759, 366.023
385.241, 358.344
385.723, 404.414
386.205, 478.859
386.687, 551.531
387.169, 619.914
387.651, 666.539
388.134, 666.500
388.616, 633.625
389.098, 588.477
389.580, 511.594
390.062, 448.531
390.544, 462.227
391.026, 533.805
391.508, 569.875
391.990, 479.938
392.473, 358.320
392.955, 285.500
393.437, 326.062
393.919, 348.023
394.401, 279.586
394.883, 159.070
395.365, 69.547
395.847, 51.391
396.329, 55.008
396.812, 58.070
397.294, 50.305
397.776, 60.547
398.258, 118.320
398.740, 185.578
399.222, 211.453
399.704, 155.008
400.186, 99.977
400.668, 57.703
401.151, 24.141
401.633, 11.805
402.115, 26.766
402.597, 60.469
403.079, 116.781
403.561, 231.133
404.043, 285.883
404.525, 240.164
405.008, 124.523
405.490, 76.148
405.972, 104.406
406.454, 163.703
406.936, 246.852
407.418, 358.922
407.900, 392.773
408.382, 308.203
408.865, 184.375
409.347, 179.250
409.829, 294.070
410.311, 418.516
410.793, 501.992
411.275, 551.938
411.757, 587.836
412.239, 610.875
412.721, 621.961
413.203, 604.562
413.686, 574.344
414.168, 571.500
414.650, 639.500
415.132, 719.398
415.614, 733.891
416.096, 689.250
416.578, 649.492
417.060, 670.352
417.543, 711.695
418.025, 726.906
418.507, 692.000
418.989, 651.188
419.471, 635.914
419.953, 635.227
420.435, 617.516
420.917, 563.703
421.400, 492.641
421.882, 408.523
422.364, 299.984
422.846, 227.102
423.328, 211.758
423.810, 238.703
424.292, 285.445
424.774, 406.602
425.256, 482.094
425.738, 480.922
426.221, 403.219
426.703, 337.148
427.185, 263.555
427.667, 220.570
428.149, 244.594
428.631, 366.359
429.113, 468.648
429.595, 535.797
430.078, 576.148
430.560, 612.891
431.042, 640.781
431.524, 683.352
432.006, 760.383
432.488, 870.969
432.970, 965.898
433.452, 1039.117
433.935, 1110.992
434.417, 1224.484
434.899, 1370.516
435.381, 1484.180
435.863, 1505.938
436.345, 1489.641
436.827, 1561.797
437.309, 1720.609
437.791, 1871.086
438.274, 1881.320
438.756, 1841.719
439.238, 1905.820
439.720, 2177.352
440.202, 2466.125
440.684, 2601.750
441.166, 2625.234
441.648, 2665.789
442.130, 2802.461
442.613, 2964.977
443.095, 3104.555
443.577, 3202.945
444.059, 3320.156
444.541, 3550.195
445.023, 3787.719
445.505, 3898.688
445.987, 3822.594
446.470, 3651.445
446.952, 3373.320
447.434, 2983.664
447.916, 2631.438
448.398, 2326.484
448.880, 2048.969
449.362, 1782.664
449.844, 1511.648
450.327, 1292.914
450.809, 1139.508
451.291, 1034.289
451.773, 933.461
452.255, 837.406
452.737, 739.586
453.219, 626.531
453.701, 497.164
454.183, 408.430
454.665, 361.914
455.148, 344.492
455.630, 367.523
456.112, 419.859
456.594, 413.703
457.076, 286.180
457.558, 113.117
458.040, 39.016
458.522, 55.453
459.005, 86.188
459.487, 89.297
459.969, 69.852
460.451, 31.867
460.933, 28.258
461.415, 93.219
461.897, 159.844
462.379, 221.062
462.862, 264.195
463.344, 271.094
463.826, 268.828
464.308, 279.906
464.790, 308.469
465.272, 301.648
465.754, 207.617
466.236, 94.602
466.718, 17.984
467.201, 16.672
467.683, 9.867
468.165, 5.250
468.647, 28.180
469.129, 63.570
469.611, 128.430
470.093, 177.102
470.575, 183.562
471.057, 134.352
471.540, 104.477
472.022, 88.281
472.504, 97.844
472.986, 179.250
473.468, 343.180
473.950, 421.961
474.432, 341.023
474.914, 159.148
475.397, 47.445
475.879, 6.750
476.361, 17.094
476.843, 68.602
477.325, 130.031
477.807, 159.805
478.289, 143.273
478.771, 113.781
479.254, 95.758
479.736, 88.523
480.218, 92.070
480.700, 136.055
481.182, 168.945
481.664, 161.859
482.146, 114.805
482.628, 27.516
483.110, 154.781
483.592, 340.672
484.075, 458.664
484.557, 418.711
485.039, 392.641
485.521, 396.891
486.003, 428.484
486.485, 481.008
486.967, 600.969
487.449, 683.352
487.931, 687.234
488.414, 601.164
488.896, 529.391
489.378, 486.430
489.860, 443.195
490.342, 344.617
490.824, 173.547
491.306, 113.062
491.789, 235.391
492.271, 459.680
492.753, 582.148
493.235, 604.320
493.717, 594.562
494.199, 589.898
494.681, 584.352
495.163, 561.688
495.645, 516.734
496.128, 471.688
496.610, 444.727
497.092, 431.758
497.574, 425.727
498.056, 411.094
498.538, 414.852
499.020, 482.031
499.502, 595.414
499.984, 663.305
500.467, 610.977
500.949, 532.586
501.431, 481.852
501.913, 462.602
502.395, 479.305
502.877, 551.727
503.359, 655.094
503.841, 751.539
504.323, 811.477
504.806, 906.898
505.288, 1066.477
505.770, 1277.812
506.252, 1447.102
506.734, 1568.875
507.216, 1656.352
507.698, 1709.766
508.181, 1727.961
508.663, 1737.742
509.145, 1733.492
509.627, 1743.555
510.109, 1833.836
510.591, 1989.789
511.073, 2117.586
511.555, 2145.898
512.037, 2141.984
512.519, 2226.781
513.002, 2391.742
513.484, 2550.055
513.966, 2614.633
514.448, 2654.062
514.930, 2744.516
515.412, 2919.586
515.894, 3094.469
516.376, 3227.992
516.859, 3337.656
517.341, 3449.828
517.823, 3566.844
518.305, 3688.953
518.787, 3811.844
519.269, 3935.250
519.751, 4070.617
520.233, 4249.555
520.716, 4412.516
521.198, 4517.961
521.680, 4541.375
522.162, 4585.000
522.644, 4659.383
523.126, 4748.758
523.608, 4837.930
524.090, 4933.922
524.572, 4976.023
525.055, 4902.148
525.537, 4762.922
526.019, 4746.672
526.501, 4852.492
526.983, 4954.555
527.465, 4947.430
527.947, 4865.758
528.429, 4764.047
528.911, 4637.984
529.394, 4536.281
529.876, 4530.109
530.358, 4571.578
530.840, 4574.891
531.322, 4492.547
531.804, 4374.992
532.286, 4229.227
532.768, 4060.266
533.250, 3912.523
533.733, 3822.148
534.215, 3739.180
534.697, 3632.070
535.179, 3464.672
535.661, 3343.812
536.143, 3288.461
536.625, 3274.586
537.107, 3265.492
537.589, 3264.914
538.072, 3257.641
538.554, 3240.336
539.036, 3211.195
539.518, 3139.797
540.000, 3022.070
540.482, 2946.906
540.964, 3000.531
541.446, 3139.703
541.929, 3244.242
542.411, 3289.203
542.893, 3348.562
543.375, 3454.195
543.857, 3630.859
544.339, 3924.359
544.821, 4589.133
545.303, 5161.695
545.786, 5281.969
546.268, 5040.102
546.750, 4861.805
547.232, 4932.398
547.714, 5075.211
548.196, 5207.383
548.678, 5319.523
549.160, 5427.383
549.643, 5549.031
550.125, 5656.242
550.607, 5709.852
551.089, 5671.422
551.571, 5680.188
552.053, 5767.469
552.535, 5911.938
553.017, 6049.609
553.499, 6178.898
553.982, 6319.742
554.464, 6479.297
554.946, 6659.680
555.428, 6893.734
555.910, 7189.508
556.392, 7447.258
556.874, 7541.250
557.356, 7546.438
557.838, 7591.250
558.321, 7724.906
558.803, 7884.203
559.285, 8064.055
559.767, 8239.961
560.249, 8353.336
560.731, 8336.984
561.213, 8298.289
561.695, 8293.234
562.177, 8330.984
562.660, 8303.781
563.142, 8172.039
563.624, 8001.156
564.106, 7825.188
564.588, 7640.711
565.070, 7468.688
565.552, 7331.438
566.034, 7179.125
566.516, 6895.344
566.999, 6465.062
567.481, 6095.734
567.963, 5855.953
568.445, 5719.828
568.927, 5635.930
569.409, 5600.406
569.891, 5559.875
570.373, 5471.172
570.856, 5358.008
571.338, 5269.695
571.820, 5224.094
572.302, 5119.219
572.784, 4832.812
573.266, 4473.406
573.748, 4163.438
574.230, 3975.219
574.713, 3807.820
575.195, 3632.797
575.677, 3458.312
576.159, 3316.180
576.641, 3244.672
577.123, 3159.430
577.605, 3017.570
578.087, 2811.352
578.570, 2666.336
579.052, 2598.477
579.534, 2554.844
580.016, 2491.852
580.498, 2411.375
580.980, 2325.891
581.462, 2228.578
581.944, 2150.609
582.426, 2154.453
582.909, 2216.602
583.391, 2262.352
583.873, 2243.836
584.355, 2200.703
584.837, 2161.766
585.319, 2127.344
585.801, 2100.930
586.283, 2075.203
586.765, 2059.336
587.248, 2064.219
587.730, 2108.977
588.212, 2115.141
588.694, 2027.023
589.176, 1929.578
589.658, 1909.820
590.140, 2042.562
590.622, 2084.719
591.104, 1971.656
591.587, 1771.125
592.069, 1670.398
592.551, 1677.250
593.033, 1706.070
593.515, 1725.344
593.997, 1736.289
594.479, 1747.812
594.961, 1759.891
595.443, 1746.992
595.926, 1668.914
596.408, 1561.930
596.890, 1472.906
597.372, 1407.523
597.854, 1368.891
598.336, 1376.875
598.818, 1408.078
599.300, 1428.922
599.783, 1435.977
600.265, 1426.969
600.747, 1385.875
601.229, 1323.914
601.711, 1289.672
602.193, 1303.477
602.675, 1310.102
603.157, 1277.742
603.640, 1204.453
604.122, 1189.469
604.604, 1248.094
605.086, 1304.391
605.568, 1268.734
606.050, 1164.719
606.532, 1107.141
607.014, 1122.039
607.497, 1160.820
607.979, 1177.969
608.461, 1177.727
608.943, 1169.859
609.425, 1174.742
609.907, 1157.930
610.389, 1072.781
610.871, 938.945
611.353, 851.406
611.836, 907.148
612.318, 952.508
612.800, 906.648
613.282, 746.188
613.764, 642.000
614.246, 635.953
614.728, 636.320
615.210, 546.312
615.692, 347.242
616.175, 224.414
616.657, 204.570
617.139, 252.383
617.621, 344.727
618.103, 466.211
618.585, 535.273
619.067, 487.688
619.549, 399.109
620.031, 349.031
620.514, 333.156
620.996, 336.906
621.478, 361.688
621.960, 393.586
622.442, 427.320
622.924, 463.055
623.406, 483.500
623.888, 478.570
624.370, 460.195
624.853, 434.953
625.335, 393.891
625.817, 368.375
