##NAMES=Holfertite
##RRUFFID=R060595
##IDEAL CHEMISTRY=(U^6+^O_2_)_1.75_Ca_0.25_Ti^4+^O_4_&#183;3H_2_O
##LOCALITY=Searle Canyon, Thomas Range, Juab County, Utah, USA
##OWNER=RRUFF
##SOURCE=Michael Scott
##DESCRIPTION=Yellow bladed crystals embedded in topaz
##STATUS=The identification of this mineral has been confirmed by single-crystal X-ray diffraction.
##URL=rruff.info/R060595
90.74744, 0.0000000E+00
91.22955, 7.588623
91.71167, 24.02124
92.19379, 34.94751
92.67590, 41.55688
93.15802, 45.56250
93.64014, 47.69580
94.12225, 48.59375
94.60437, 48.65015
95.08649, 46.66504
95.56860, 42.31201
96.05072, 36.39966
96.53284, 30.73779
97.01495, 26.08887
97.49707, 26.34424
97.97919, 27.84937
98.46130, 25.63721
98.94342, 20.99121
99.42554, 15.78247
99.90765, 13.45508
100.3898, 14.83057
100.8719, 17.27734
101.3540, 16.91479
101.8361, 13.27856
102.3182, 8.965088
102.8004, 4.785400
103.2825, 0.5859380
103.7646, 2.446777
104.2467, 4.240479
104.7288, 4.822998
105.2109, 4.325684
105.6931, 2.707275
106.1752, 0.1311040
106.6573, 4.503662
107.1394, 12.07153
107.6215, 18.57446
108.1036, 23.84595
108.5858, 28.10815
109.0679, 32.05298
109.5500, 35.09912
110.0321, 38.42017
110.5142, 42.59912
110.9963, 49.11450
111.4785, 54.93994
111.9606, 59.55151
112.4427, 63.02051
112.9248, 66.46021
113.4069, 69.76416
113.8890, 73.22998
114.3712, 77.22778
114.8533, 83.04053
115.3354, 88.21802
115.8175, 92.05396
116.2996, 94.60449
116.7817, 95.98218
117.2639, 94.43286
117.7460, 92.23413
118.2281, 92.27441
118.7102, 98.97632
119.1923, 105.8613
119.6744, 108.3787
120.1566, 105.1951
120.6387, 101.5688
121.1208, 99.62549
121.6029, 99.47266
122.0850, 101.4062
122.5671, 107.6836
123.0493, 115.0859
123.5314, 120.2927
124.0135, 122.4568
124.4956, 122.9382
124.9777, 121.9731
125.4598, 119.9753
125.9420, 118.6384
126.4241, 119.6069
126.9062, 121.8589
127.3883, 123.5276
127.8704, 124.0190
128.3525, 123.9919
128.8347, 124.7063
129.3168, 126.1006
129.7989, 126.9551
130.2810, 125.3459
130.7631, 122.0874
131.2452, 120.8403
131.7274, 123.7195
132.2095, 128.6953
132.6916, 129.7185
133.1737, 126.3848
133.6558, 122.1611
134.1379, 120.9849
134.6201, 122.9617
135.1022, 124.8447
135.5843, 124.0461
136.0664, 119.8562
136.5485, 117.2446
137.0306, 117.6833
137.5128, 119.8994
137.9949, 121.7087
138.4770, 122.6501
138.9591, 123.6746
139.4412, 125.0813
139.9233, 126.9685
140.4055, 128.5935
140.8876, 129.9373
141.3697, 130.9338
141.8518, 131.7612
142.3339, 132.6748
142.8160, 132.7864
143.2982, 131.4453
143.7803, 127.9482
144.2624, 125.3040
144.7445, 123.6792
145.2266, 122.8118
145.7087, 122.0718
146.1909, 121.9995
146.6730, 121.5403
147.1551, 120.1699
147.6372, 116.8726
148.1193, 114.5090
148.6014, 113.7795
149.0836, 114.1011
149.5657, 113.6580
150.0478, 111.8838
150.5299, 109.7439
151.0120, 107.6580
151.4941, 104.5503
151.9763, 102.7048
152.4584, 103.4651
152.9405, 106.0366
153.4226, 106.4797
153.9047, 102.5740
154.3868, 97.68896
154.8690, 93.65625
155.3511, 92.21094
155.8332, 89.89185
156.3153, 85.44116
156.7974, 79.24146
157.2795, 74.14575
157.7617, 71.90479
158.2438, 70.44312
158.7259, 68.26587
159.2080, 64.23853
159.6901, 60.28149
160.1722, 56.86987
160.6544, 54.03589
161.1365, 51.78442
161.6186, 50.21021
162.1007, 49.00513
162.5828, 47.94043
163.0649, 47.57227
163.5471, 46.91284
164.0292, 45.24023
164.5113, 42.34326
164.9934, 39.60010
165.4755, 38.16821
165.9576, 37.15991
166.4398, 35.46289
166.9219, 31.72485
167.4040, 27.78296
167.8861, 24.81982
168.3682, 22.91846
168.8503, 21.52100
169.3325, 20.76538
169.8146, 20.25122
170.2967, 19.28857
170.7788, 17.30078
171.2609, 14.97559
171.7430, 12.83008
172.2252, 10.89282
172.7073, 9.330811
173.1894, 8.333008
173.6715, 7.815186
174.1536, 7.574463
174.6357, 7.995850
175.1179, 8.526123
175.6000, 8.456787
176.0821, 7.657227
176.5642, 6.501953
177.0463, 5.560303
177.5284, 4.611084
178.0106, 2.948975
178.4927, 0.7397460
178.9748, 5.159912
179.4569, 8.281738
179.9390, 9.960205
180.4211, 10.08447
180.9033, 7.347412
181.3854, 2.365234
181.8675, 1.707520
182.3496, 2.772461
182.8317, 1.635986
183.3138, 0.2263180
183.7960, 1.468018
184.2781, 2.897461
184.7602, 3.147949
185.2423, 2.312744
185.7244, 1.333252
186.2065, 0.8327640
186.6887, 0.6726070
187.1708, 0.1914060
187.6529, 0.7053220
188.1350, 1.808594
188.6171, 2.626953
189.0992, 3.196289
189.5814, 3.831787
190.0635, 4.106689
190.5456, 4.379639
191.0277, 7.311523
191.5098, 14.37573
191.9919, 22.48169
192.4741, 24.49023
192.9562, 20.17505
193.4383, 14.45142
193.9204, 9.883789
194.4025, 6.504883
194.8846, 5.200684
195.3668, 6.728271
195.8489, 9.640137
196.3310, 10.13770
196.8131, 7.899170
197.2952, 5.637451
197.7773, 5.438477
198.2595, 7.356201
198.7416, 8.940674
199.2237, 9.832520
199.7058, 10.24414
200.1879, 10.83618
200.6700, 11.82715
201.1522, 12.28589
201.6343, 11.08569
202.1164, 7.946045
202.5985, 6.403809
203.0806, 7.466553
203.5627, 10.06567
204.0449, 10.51440
204.5270, 8.301270
205.0091, 5.557617
205.4912, 3.599365
205.9733, 2.436035
206.4554, 1.972656
206.9376, 2.466309
207.4197, 3.561279
207.9018, 4.077881
208.3839, 3.983154
208.8660, 3.448730
209.3481, 2.326904
209.8303, 0.3325200
210.3124, 0.6691890
210.7945, 6.1523002E-02
211.2766, 1.663330
211.7587, 2.373535
212.2408, 1.515625
212.7230, 0.8793950
213.2051, 1.821777
213.6872, 4.829590
214.1693, 7.697754
214.6514, 10.21045
215.1335, 12.31909
215.6157, 13.75684
216.0978, 14.68872
216.5799, 14.54883
217.0620, 12.59277
217.5441, 7.698975
218.0262, 4.162842
218.5084, 2.580811
218.9905, 2.698730
219.4726, 3.239746
219.9547, 4.719238
220.4368, 5.927734
220.9189, 5.755859
221.4011, 3.142334
221.8832, 2.368896
222.3653, 4.916260
222.8474, 9.655518
223.3295, 11.40234
223.8116, 8.526611
224.2938, 5.111328
224.7759, 3.821289
225.2580, 5.565430
225.7401, 6.883301
226.2222, 7.150635
226.7043, 6.683105
227.1865, 7.234131
227.6686, 9.674316
228.1507, 11.66895
228.6328, 11.62671
229.1149, 8.374512
229.5970, 5.721191
230.0792, 3.500732
230.5613, 2.065186
231.0434, 3.003174
231.5255, 7.732422
232.0076, 12.77539
232.4897, 16.23901
232.9719, 17.72534
233.4540, 18.58716
233.9361, 18.26855
234.4182, 17.65649
234.9003, 19.76074
235.3824, 26.32153
235.8646, 32.71851
236.3467, 36.35205
236.8288, 34.83154
237.3109, 35.58032
237.7930, 39.25464
238.2751, 45.12573
238.7573, 51.41919
239.2394, 59.95947
239.7215, 66.82300
240.2036, 69.52051
240.6857, 64.96704
241.1678, 62.79199
241.6500, 64.76343
242.1321, 68.79663
242.6142, 69.03564
243.0963, 62.59644
243.5784, 56.27441
244.0605, 53.25220
244.5427, 55.45630
245.0248, 56.20654
245.5069, 55.17944
245.9890, 52.94458
246.4711, 50.71289
246.9532, 48.70557
247.4354, 46.44580
247.9175, 43.48315
248.3996, 39.07666
248.8817, 36.69751
249.3638, 37.21655
249.8459, 39.33740
250.3281, 40.85010
250.8102, 42.20288
251.2923, 42.25024
251.7744, 40.14917
252.2565, 34.90674
252.7386, 31.83276
253.2208, 31.70605
253.7029, 33.20776
254.1850, 34.44971
254.6671, 35.61377
255.1492, 36.01587
255.6313, 34.97095
256.1135, 31.95532
256.5956, 30.73804
257.0777, 31.71484
257.5598, 33.93945
258.0419, 36.39990
258.5240, 39.55737
259.0062, 41.61768
259.4883, 41.93652
259.9704, 40.33057
260.4525, 38.23315
260.9346, 35.03125
261.4167, 32.11914
261.8989, 31.37524
262.3810, 33.70898
262.8631, 35.82715
263.3452, 37.02539
263.8273, 37.40747
264.3094, 37.22705
264.7916, 36.31836
265.2737, 35.41138
265.7558, 35.17822
266.2379, 35.60010
266.7200, 36.94775
267.2021, 40.06299
267.6843, 44.43481
268.1664, 45.62622
268.6485, 42.98267
269.1306, 38.78467
269.6127, 34.50098
270.0948, 29.87061
270.5770, 25.84326
271.0591, 22.43970
271.5412, 19.73291
272.0233, 18.48071
272.5054, 18.99341
272.9875, 19.84424
273.4697, 20.08716
273.9518, 19.73926
274.4339, 18.66602
274.9160, 16.48022
275.3981, 13.76733
275.8802, 12.66431
276.3624, 13.55908
276.8445, 14.52808
277.3266, 14.14307
277.8087, 12.29102
278.2908, 11.11694
278.7729, 10.86768
279.2551, 11.33130
279.7372, 12.58130
280.2193, 15.04980
280.7014, 15.87939
281.1835, 12.36621
281.6656, 4.597412
282.1478, 0.5598140
282.6299, 2.664551
283.1120, 2.370605
283.5941, 9.2528999E-02
284.0762, 4.302246
284.5583, 8.380859
285.0405, 11.05908
285.5226, 12.45142
286.0047, 13.60303
286.4868, 14.58423
286.9689, 15.04712
287.4510, 14.50562
287.9332, 12.96777
288.4153, 10.76855
288.8974, 7.526367
289.3795, 3.704834
289.8616, 1.303223
290.3438, 0.4658200
290.8259, 0.1259770
291.3080, 2.326416
291.7901, 5.799072
292.2722, 8.331299
292.7543, 8.763916
293.2365, 8.014160
293.7186, 8.507080
294.2007, 10.29468
294.6828, 11.78833
295.1649, 10.89111
295.6470, 8.441406
296.1292, 7.179199
296.6113, 8.460205
297.0934, 10.62866
297.5755, 10.63086
298.0576, 8.649902
298.5397, 6.939209
299.0219, 7.920166
299.5040, 10.23218
299.9861, 10.83740
300.4682, 8.671631
300.9503, 5.526367
301.4324, 3.135010
301.9146, 1.474365
302.3967, 0.2827150
302.8788, 0.3532710
303.3609, 0.6796880
303.8430, 0.6044920
304.3251, 0.2612300
304.8073, 0.1240230
305.2894, 3.409668
305.7715, 9.272705
306.2536, 15.11572
306.7357, 19.05273
307.2178, 22.55273
307.7000, 27.51245
308.1821, 34.27637
308.6642, 39.97583
309.1463, 40.96851
309.6284, 39.66895
310.1105, 39.93701
310.5927, 45.04932
311.0748, 51.02173
311.5569, 54.77148
312.0390, 56.25708
312.5211, 58.28369
313.0032, 64.18066
313.4854, 70.94409
313.9675, 75.25146
314.4496, 72.95703
314.9317, 70.79077
315.4138, 72.55005
315.8959, 77.66309
316.3781, 82.57031
316.8602, 86.00415
317.3423, 88.46338
317.8244, 90.29907
318.3065, 91.78540
318.7886, 92.40723
319.2708, 89.90869
319.7529, 86.08105
320.2350, 85.99951
320.7171, 95.99683
321.1992, 106.3713
321.6813, 111.8398
322.1635, 108.9949
322.6456, 107.3413
323.1277, 110.2317
323.6098, 115.1326
324.0919, 117.8613
324.5740, 115.1946
325.0562, 112.4790
325.5383, 111.3845
326.0204, 112.3633
326.5025, 113.4673
326.9846, 113.8555
327.4667, 114.6499
327.9489, 117.1230
328.4310, 124.4924
328.9131, 130.0874
329.3952, 132.8918
329.8773, 132.9043
330.3594, 131.6572
330.8416, 127.9395
331.3237, 123.9968
331.8058, 121.3542
332.2879, 120.1045
332.7700, 120.0002
333.2521, 121.1748
333.7343, 123.4849
334.2164, 126.6924
334.6985, 132.1973
335.1806, 136.2136
335.6627, 135.8677
336.1448, 128.3921
336.6270, 125.2458
337.1091, 128.4209
337.5912, 134.7544
338.0733, 137.5798
338.5554, 135.7498
339.0375, 134.0002
339.5197, 134.4946
340.0018, 137.2395
340.4839, 138.9377
340.9660, 139.4126
341.4481, 139.5872
341.9302, 140.5093
342.4124, 142.1868
342.8945, 143.1306
343.3766, 142.3430
343.8587, 140.4724
344.3408, 140.9956
344.8229, 144.1360
345.3051, 147.9517
345.7872, 150.8994
346.2693, 153.0034
346.7514, 154.4590
347.2335, 154.8062
347.7156, 155.1404
348.1978, 158.2952
348.6799, 164.0366
349.1620, 168.8638
349.6441, 168.7546
350.1262, 166.1602
350.6083, 167.4297
351.0905, 174.2510
351.5726, 182.0977
352.0547, 185.3706
352.5368, 185.2651
353.0189, 185.4998
353.5010, 187.1372
353.9832, 190.4849
354.4653, 196.4675
354.9474, 205.2361
355.4295, 214.1277
355.9116, 220.8733
356.3937, 226.5305
356.8759, 232.4019
357.3580, 239.3945
357.8401, 246.5269
358.3222, 253.4961
358.8043, 260.3696
359.2864, 266.5349
359.7686, 268.9221
360.2507, 271.8794
360.7328, 279.4006
361.2149, 295.2346
361.6970, 310.9543
362.1791, 323.1672
362.6613, 332.7417
363.1434, 341.6929
363.6255, 349.4644
364.1076, 357.6108
364.5897, 367.2021
365.0718, 378.6914
365.5540, 389.4595
366.0361, 398.2983
366.5182, 406.4126
367.0003, 415.2607
367.4824, 426.0088
367.9645, 436.5610
368.4467, 446.3672
368.9288, 455.1938
369.4109, 464.9131
369.8930, 474.9609
370.3751, 486.4829
370.8572, 500.6753
371.3394, 520.9927
371.8215, 537.7822
372.3036, 548.4810
372.7857, 555.2061
373.2678, 565.9536
373.7499, 582.7358
374.2321, 600.1284
374.7142, 615.1733
375.1963, 627.0630
375.6784, 640.2583
376.1605, 654.6665
376.6426, 670.3003
377.1248, 687.1304
377.6069, 705.9688
378.0890, 723.5864
378.5711, 737.9927
379.0532, 749.8071
379.5353, 763.2314
380.0175, 778.6577
380.4996, 794.1201
380.9817, 807.7651
381.4638, 819.7671
381.9459, 831.7334
382.4280, 843.4937
382.9102, 855.2812
383.3923, 868.0767
383.8744, 881.8784
384.3565, 894.3755
384.8386, 903.3862
385.3207, 909.9624
385.8029, 916.1289
386.2850, 922.4146
386.7671, 927.4482
387.2492, 929.6919
387.7313, 929.6079
388.2134, 928.2422
388.6956, 926.1655
389.1777, 923.2905
389.6598, 919.0483
390.1419, 913.2437
390.6240, 907.3530
391.1061, 903.1655
391.5883, 899.2881
392.0704, 894.0435
392.5525, 886.6646
393.0346, 878.1055
393.5167, 868.2236
393.9988, 857.6045
394.4810, 847.3374
394.9631, 837.0654
395.4452, 827.6753
395.9273, 820.3931
396.4094, 817.2056
396.8915, 810.1709
397.3737, 794.8618
397.8558, 775.8252
398.3379, 758.6543
398.8200, 744.8081
399.3021, 731.7471
399.7842, 719.4043
400.2664, 707.7202
400.7485, 694.9829
401.2306, 680.8633
401.7127, 665.9961
402.1948, 650.7021
402.6769, 634.5645
403.1591, 618.9507
403.6412, 604.6855
404.1233, 590.6548
404.6054, 573.2207
405.0875, 551.1846
405.5696, 529.7905
406.0518, 511.9028
406.5339, 497.7344
407.0160, 480.8301
407.4981, 460.7705
407.9802, 439.8145
408.4623, 420.4375
408.9445, 402.6206
409.4266, 386.0195
409.9087, 371.1333
410.3908, 357.0679
410.8729, 341.1240
411.3550, 323.3872
411.8372, 306.8594
412.3193, 294.6411
412.8014, 285.0352
413.2835, 273.7124
413.7656, 259.6772
414.2477, 245.2490
414.7299, 231.9922
415.2120, 220.1719
415.6941, 210.7690
416.1762, 206.8301
416.6583, 203.5601
417.1404, 195.8428
417.6226, 183.6621
418.1047, 171.9644
418.5868, 163.0034
419.0689, 156.0293
419.5510, 150.4541
420.0331, 148.5205
420.5153, 144.7217
420.9974, 134.9800
421.4795, 121.6880
421.9616, 111.1206
422.4437, 108.7725
422.9258, 106.2178
423.4080, 99.41943
423.8901, 86.48096
424.3722, 75.54004
424.8543, 67.93213
425.3364, 62.43066
425.8185, 57.98389
426.3007, 56.25537
426.7828, 53.15430
427.2649, 47.28760
427.7470, 39.30029
428.2291, 33.52197
428.7112, 30.78760
429.1934, 28.73926
429.6755, 26.16846
430.1576, 22.98975
430.6397, 19.23291
431.1218, 14.47217
431.6039, 9.728027
432.0861, 6.803223
432.5682, 5.800293
433.0503, 5.201172
433.5324, 5.077148
434.0145, 4.899414
434.4966, 2.270996
434.9788, 2.846191
435.4609, 8.044922
435.9430, 11.46094
436.4251, 13.33350
436.9072, 14.26709
437.3893, 14.09375
437.8715, 13.63330
438.3536, 14.38330
438.8357, 15.70117
439.3178, 15.80322
439.7999, 12.53516
440.2820, 8.460449
440.7642, 6.234375
441.2463, 6.005371
441.7284, 5.790039
442.2105, 4.289063
442.6926, 2.434082
443.1747, 1.119629
443.6569, 1.098145
444.1390, 1.136719
444.6211, 0.4746090
445.1032, 0.4594730
445.5853, 0.2802730
446.0674, 3.430664
446.5496, 6.265625
447.0317, 5.932617
447.5138, 0.5429690
447.9959, 2.316406
448.4780, 1.217773
448.9601, 1.145020
449.4423, 1.989746
449.9244, 8.7890998E-02
450.4065, 0.8647460
450.8886, 0.4213870
451.3707, 3.024414
451.8528, 2.552246
452.3350, 1.849609
452.8171, 6.716309
453.2992, 10.21338
453.7813, 12.28613
454.2634, 14.28857
454.7455, 16.01514
455.2277, 18.19531
455.7098, 22.13867
456.1919, 27.54102
456.6740, 33.36963
457.1561, 40.17529
457.6382, 46.20459
458.1204, 46.75391
458.6025, 42.65283
459.0846, 39.43604
459.5667, 42.13037
460.0488, 47.55273
460.5309, 51.62061
461.0131, 53.62549
461.4952, 54.96436
461.9773, 55.51416
462.4594, 56.18213
462.9415, 58.36426
463.4236, 65.20654
463.9058, 71.15186
464.3879, 73.15479
464.8700, 71.51855
465.3521, 70.48633
465.8342, 71.93896
466.3163, 73.62988
466.7985, 74.21387
467.2806, 72.23535
467.7627, 71.64844
468.2448, 73.12744
468.7269, 75.68896
469.2090, 78.19385
469.6912, 81.40283
470.1733, 83.23145
470.6554, 82.48389
471.1375, 79.58643
471.6196, 79.48193
472.1017, 83.17969
472.5839, 86.72705
473.0660, 87.58594
473.5481, 85.73682
474.0302, 82.53809
474.5123, 77.54541
474.9944, 72.90186
475.4766, 72.97363
475.9587, 76.92480
476.4408, 79.16162
476.9229, 76.13672
477.4050, 70.94043
477.8871, 68.83008
478.3693, 69.58984
478.8514, 70.84229
479.3335, 69.28027
479.8156, 67.29443
480.2977, 69.01318
480.7798, 76.54932
481.2620, 83.29590
481.7441, 84.73926
482.2262, 82.98340
482.7083, 81.18896
483.1904, 78.02734
483.6725, 76.91016
484.1547, 80.65479
484.6368, 88.75586
485.1189, 94.62256
485.6010, 95.80078
486.0831, 95.23096
486.5652, 94.29443
487.0474, 91.94678
487.5295, 91.82959
488.0116, 95.41992
488.4937, 100.0000
488.9758, 101.8052
489.4579, 100.2505
489.9401, 97.69727
490.4222, 94.56445
490.9043, 90.93945
491.3864, 86.69824
491.8685, 81.55713
492.3506, 77.75098
492.8328, 77.74707
493.3149, 80.35693
493.7970, 80.91309
494.2791, 79.07227
494.7612, 75.97705
495.2433, 72.72266
495.7255, 69.40234
496.2076, 66.01172
496.6897, 62.48584
497.1718, 58.95898
497.6539, 55.92334
498.1360, 53.35742
498.6182, 50.71973
499.1003, 46.44824
499.5824, 42.30615
500.0645, 39.80225
500.5466, 39.59814
501.0287, 39.18164
501.5109, 36.93018
501.9930, 34.27881
502.4751, 32.70410
502.9572, 32.35547
503.4393, 33.10254
503.9214, 36.09180
504.4036, 40.00830
504.8857, 40.19141
505.3678, 34.65479
505.8499, 29.69385
506.3320, 28.35840
506.8141, 30.93701
507.2963, 30.20508
507.7784, 25.23926
508.2605, 20.27295
508.7426, 20.27979
509.2247, 24.85107
509.7068, 28.62402
510.1890, 30.59570
510.6711, 31.28174
511.1532, 30.92969
511.6353, 29.99023
512.1174, 30.41064
512.5995, 35.09180
513.0817, 40.54688
513.5638, 42.52344
514.0459, 41.03564
514.5280, 38.32227
515.0101, 34.57275
515.4922, 30.85645
515.9744, 28.30273
516.4565, 27.92236
516.9386, 27.35791
517.4207, 25.53223
517.9028, 23.20654
518.3849, 21.57080
518.8671, 20.56152
519.3492, 20.48389
519.8313, 22.20850
520.3134, 25.41943
520.7955, 26.17334
521.2776, 22.71680
521.7598, 19.26855
522.2419, 18.10010
522.7240, 19.44434
523.2061, 22.17578
523.6882, 27.11816
524.1703, 31.81885
524.6525, 32.24707
525.1346, 28.69434
525.6167, 26.17627
526.0988, 27.17334
526.5809, 28.72119
527.0630, 24.02588
527.5452, 14.27344
528.0273, 5.868164
528.5094, 2.808105
528.9915, 3.065918
529.4736, 4.943359
529.9557, 8.397461
530.4379, 11.39014
530.9200, 12.88623
531.4021, 13.24805
531.8842, 12.74072
532.3663, 10.31641
532.8484, 8.511230
533.3306, 8.485840
533.8127, 9.374023
534.2948, 9.294434
534.7769, 8.158691
535.2590, 5.976074
535.7411, 1.845703
536.2233, 4.062500
536.7054, 5.987305
537.1875, 1.893066
537.6696, 2.413086
538.1517, 2.885254
538.6339, 0.8037110
539.1160, 3.366699
539.5981, 4.569336
540.0802, 4.565430
540.5623, 2.432617
541.0444, 1.229004
541.5266, 3.023926
542.0087, 0.7817380
542.4908, 2.616211
542.9729, 2.781738
543.4550, 0.4804690
543.9371, 1.461914
544.4193, 0.7387700
544.9014, 0.3505860
545.3835, 0.2470700
545.8656, 1.284180
546.3477, 3.298340
546.8298, 6.180664
547.3120, 9.062012
547.7941, 11.08838
548.2762, 11.17529
548.7583, 11.66602
549.2404, 13.28027
549.7225, 15.27002
550.2047, 16.33398
550.6868, 16.15576
551.1689, 15.91699
551.6510, 16.28076
552.1331, 16.97412
552.6152, 14.64600
553.0974, 8.662109
553.5795, 3.217773
554.0616, 2.008301
554.5437, 4.201660
555.0258, 3.940918
555.5079, 0.5795900
555.9901, 2.084473
556.4722, 2.009277
556.9543, 9.626465
557.4364, 13.66455
557.9185, 10.26123
558.4006, 5.571777
558.8828, 4.148926
559.3649, 5.098145
559.8470, 6.489258
560.3291, 7.356445
560.8112, 8.424316
561.2933, 10.32275
561.7755, 13.00391
