##NAMES=Hydrotalcite
##RRUFFID=R060527
##IDEAL CHEMISTRY=Mg_6_Al_2_CO_3_(OH)_16_&#183;4H_2_O
##LOCALITY=Jacupiranga Pegmatite, Sao Paulo State, Brazil
##OWNER=RRUFF
##SOURCE=Michael Scott
##DESCRIPTION=Orange hexagonal prisms topped with steep pyramids
##STATUS=The identification of this mineral has been confirmed only by single crystal X-ray diffraction.
##URL=rruff.info/R060527
88.256, 0.000
88.738, 19.332
89.220, 37.831
89.702, 53.118
90.184, 54.079
90.666, 49.136
91.148, 51.633
91.631, 67.450
92.113, 90.953
92.595, 112.454
93.077, 121.062
93.559, 130.945
94.041, 153.676
94.523, 179.626
95.005, 192.099
95.487, 197.183
95.970, 212.114
96.452, 241.481
96.934, 232.687
97.416, 213.835
97.898, 182.610
98.380, 140.198
98.862, 100.322
99.344, 68.298
99.826, 44.358
100.309, 25.962
100.791, 14.747
101.273, 7.617
101.755, 2.195
102.237, 15.182
102.719, 29.883
103.201, 47.753
103.683, 74.551
104.165, 89.741
104.648, 88.746
105.130, 53.493
105.612, 26.115
106.094, 6.188
106.576, 17.050
107.058, 12.551
107.540, 26.354
108.022, 39.777
108.505, 67.030
108.987, 68.575
109.469, 77.833
109.951, 85.851
110.433, 103.676
110.915, 145.297
111.397, 232.611
111.879, 324.898
112.362, 411.737
112.844, 488.360
113.326, 566.160
113.808, 646.240
114.290, 729.195
114.772, 814.060
115.254, 901.479
115.736, 990.482
116.218, 1079.808
116.701, 1157.309
117.183, 1249.185
117.665, 1371.236
118.147, 1518.693
118.629, 1668.653
119.111, 1827.023
119.593, 1975.903
120.075, 2094.787
120.558, 2142.954
121.040, 2183.738
121.522, 2262.760
122.004, 2381.865
122.486, 2507.108
122.968, 2625.690
123.450, 2733.147
123.932, 2821.294
124.414, 2879.470
124.897, 2918.709
125.379, 2947.112
125.861, 2960.691
126.343, 2980.643
126.825, 3029.869
127.307, 3105.348
127.789, 3194.453
128.271, 3296.348
128.753, 3405.682
129.236, 3505.836
129.718, 3587.802
130.200, 3668.620
130.682, 3783.799
131.164, 3932.089
131.646, 4085.268
132.128, 4198.550
132.610, 4282.271
133.093, 4426.980
133.575, 4669.329
134.057, 4984.843
134.539, 5294.702
135.021, 5596.972
135.503, 5901.924
135.985, 6209.164
136.467, 6518.798
136.949, 6859.005
137.432, 7240.555
137.914, 7664.690
138.396, 8107.051
138.878, 8566.310
139.360, 9038.203
139.842, 9509.906
140.324, 9969.426
140.806, 10456.340
141.288, 10987.003
141.771, 11572.832
142.253, 12175.044
142.735, 12786.932
143.217, 13416.656
143.699, 14062.017
144.181, 14715.812
144.663, 15405.516
145.145, 16164.761
145.628, 17021.318
146.110, 17880.609
146.592, 18731.303
147.074, 19580.834
147.556, 20427.309
148.038, 21284.855
148.520, 22138.863
149.002, 22969.637
149.484, 23816.578
149.967, 24610.783
150.449, 25336.373
150.931, 25995.469
151.413, 26623.158
151.895, 27286.689
152.377, 27893.943
152.859, 28349.072
153.342, 28584.480
153.824, 28739.471
154.306, 28847.066
154.788, 28919.957
155.270, 28906.021
155.752, 28808.176
156.234, 28620.467
156.716, 28333.527
157.198, 27902.717
157.680, 27411.363
158.163, 26889.869
158.645, 26338.867
159.127, 25762.746
159.609, 25161.551
160.091, 24533.043
160.573, 23871.604
161.055, 23177.938
161.538, 22451.066
162.020, 21692.424
162.502, 20871.521
162.984, 20070.355
163.466, 19357.203
163.948, 18697.443
164.430, 17977.463
164.912, 17096.395
165.394, 16164.983
165.876, 15275.014
166.359, 14440.551
166.841, 13667.110
167.323, 12969.560
167.805, 12343.470
168.287, 11752.840
168.769, 11119.706
169.251, 10534.811
169.733, 10097.754
170.216, 9991.042
170.698, 9949.078
171.180, 9766.365
171.662, 9443.107
172.144, 9065.812
172.626, 8626.601
173.108, 8181.092
173.590, 7815.694
174.072, 7601.469
174.555, 7470.466
175.037, 7354.741
175.519, 7253.267
176.001, 7154.278
176.483, 7051.008
176.965, 6942.232
177.447, 6827.641
177.929, 6705.300
178.412, 6577.362
178.894, 6447.656
179.376, 6317.875
179.858, 6185.446
180.340, 6047.030
180.822, 5903.687
181.304, 5757.742
181.786, 5618.170
182.268, 5476.735
182.751, 5309.612
183.233, 5106.984
183.715, 4897.184
184.197, 4734.259
184.679, 4612.373
185.161, 4487.678
185.643, 4325.827
186.125, 4136.521
186.607, 3939.963
187.090, 3733.843
187.572, 3532.667
188.054, 3360.265
188.536, 3218.147
189.018, 3096.574
189.500, 2994.942
189.982, 2912.273
190.464, 2833.689
190.947, 2759.985
191.429, 2687.525
191.911, 2602.802
192.393, 2503.818
192.875, 2412.278
193.357, 2349.391
193.839, 2314.770
194.321, 2283.259
194.803, 2249.694
195.286, 2215.144
195.768, 2181.654
196.250, 2149.126
196.732, 2120.047
197.214, 2096.730
197.696, 2078.925
198.178, 2062.984
198.661, 2044.783
199.143, 2026.331
199.625, 2027.551
200.107, 2054.202
200.589, 2084.395
201.071, 2087.121
201.553, 2058.151
202.035, 2037.236
202.517, 2039.614
202.999, 2064.976
203.482, 2078.300
203.964, 2078.344
204.446, 2069.483
204.928, 2055.425
205.410, 2031.009
205.892, 2014.497
206.374, 2017.246
206.857, 2041.175
207.339, 2047.609
207.821, 2027.146
208.303, 1997.186
208.785, 1992.535
209.267, 2028.456
209.749, 2045.604
210.231, 2014.296
210.713, 1925.069
211.195, 1842.271
211.678, 1765.246
212.160, 1695.276
212.642, 1632.834
213.124, 1580.202
213.606, 1528.159
214.088, 1473.900
214.570, 1418.815
215.052, 1360.603
215.535, 1296.868
216.017, 1230.001
216.499, 1168.397
216.981, 1112.533
217.463, 1062.010
217.945, 1014.615
218.427, 967.802
218.909, 928.954
219.391, 899.543
219.874, 878.568
220.356, 862.136
220.838, 821.690
221.320, 804.661
221.802, 782.150
222.284, 754.494
222.766, 705.712
223.248, 684.250
223.731, 650.755
224.213, 621.729
224.695, 600.564
225.177, 604.722
225.659, 606.646
226.141, 611.391
226.623, 601.577
227.105, 568.928
227.587, 519.563
228.070, 484.618
228.552, 472.191
229.034, 463.990
229.516, 448.048
229.998, 418.423
230.480, 394.431
230.962, 379.417
231.444, 371.679
231.926, 361.587
232.409, 349.575
232.891, 334.896
233.373, 315.680
233.855, 286.451
234.337, 264.481
234.819, 254.021
235.301, 253.268
235.783, 248.047
236.266, 237.885
236.748, 223.906
237.230, 205.617
237.712, 175.989
238.194, 156.002
238.676, 152.248
239.158, 162.474
239.640, 164.039
240.122, 151.286
240.605, 136.556
241.087, 122.443
241.569, 77.626
242.051, 63.496
242.533, 74.678
243.015, 79.728
243.497, 78.977
243.980, 55.012
244.462, 61.042
244.944, 55.062
245.426, 48.597
245.908, 58.867
246.390, 38.317
246.872, 46.692
247.354, 39.555
247.836, 9.887
248.318, 22.124
248.801, 39.060
249.283, 32.401
249.765, 28.787
250.247, 34.711
250.729, 48.996
251.211, 52.265
251.693, 36.099
252.176, 19.148
252.658, 17.398
253.140, 37.483
253.622, 58.337
254.104, 79.300
254.586, 99.532
255.068, 109.550
255.550, 105.411
256.032, 96.089
256.514, 89.283
256.997, 87.637
257.479, 81.740
257.961, 67.825
258.443, 46.911
258.925, 37.678
259.407, 55.616
259.889, 62.416
260.371, 70.944
260.854, 54.349
261.336, 43.900
261.818, 39.263
262.300, 57.753
262.782, 46.462
263.264, 47.160
263.746, 48.387
264.228, 33.016
264.711, 48.339
265.193, 33.309
265.675, 30.449
266.157, 22.074
266.639, 25.757
267.121, 25.762
267.603, 13.776
268.085, 8.483
268.567, 13.688
269.050, 5.168
269.532, 21.268
270.014, 15.832
270.496, 11.924
270.978, 2.466
271.460, 29.931
271.942, 33.849
272.424, 9.044
272.906, 10.802
273.389, 19.127
273.871, 19.171
274.353, 27.789
274.835, 48.649
275.317, 65.785
275.799, 65.085
276.281, 44.198
276.763, 25.237
277.246, 10.810
277.728, 0.732
278.210, 4.895
278.692, 5.231
279.174, 4.342
279.656, 2.905
280.138, 0.603
280.620, 7.345
281.103, 27.476
281.585, 54.803
282.067, 72.871
282.549, 81.057
283.031, 84.457
283.513, 83.324
283.995, 78.187
284.477, 81.339
284.959, 96.700
285.441, 117.905
285.924, 132.440
286.406, 140.299
286.888, 142.071
287.370, 133.452
287.852, 116.762
288.334, 108.560
288.816, 110.669
289.298, 121.923
289.781, 142.198
290.263, 171.267
290.745, 203.534
291.227, 239.502
291.709, 276.765
292.191, 302.743
292.673, 314.234
293.155, 320.380
293.638, 331.602
294.120, 348.188
294.602, 373.011
295.084, 418.417
295.566, 473.213
296.048, 504.245
296.530, 504.962
297.012, 499.869
297.494, 521.367
297.977, 564.470
298.459, 607.984
298.941, 640.799
299.423, 667.196
299.905, 693.349
300.387, 719.729
300.869, 746.840
301.351, 777.950
301.833, 810.919
302.316, 839.524
302.798, 856.175
303.280, 868.681
303.762, 891.009
304.244, 924.528
304.726, 951.062
305.208, 948.827
305.690, 928.579
306.173, 909.682
306.655, 905.834
307.137, 904.473
307.619, 892.673
308.101, 870.094
308.583, 843.804
309.065, 819.254
309.547, 795.346
310.030, 769.992
310.512, 742.904
310.994, 712.517
311.476, 673.920
311.958, 628.125
312.440, 588.677
312.922, 574.529
313.404, 567.045
313.886, 546.408
314.369, 486.329
314.851, 430.347
315.333, 407.800
315.815, 412.781
316.297, 411.883
316.779, 382.981
317.261, 344.820
317.743, 312.701
318.225, 295.358
318.708, 279.576
319.190, 254.857
319.672, 225.956
320.154, 209.013
320.636, 216.976
321.118, 235.085
321.600, 251.271
322.082, 227.628
322.565, 217.555
323.047, 227.058
323.529, 232.042
324.011, 233.080
324.493, 216.526
324.975, 222.160
325.457, 219.453
325.939, 216.575
326.422, 225.719
326.904, 212.332
327.386, 220.572
327.868, 219.958
328.350, 223.610
328.832, 219.046
329.314, 218.184
329.796, 219.834
330.278, 223.713
330.760, 232.295
331.243, 242.157
331.725, 248.766
332.207, 250.064
332.689, 249.127
333.171, 246.323
333.653, 242.551
334.135, 243.521
334.617, 252.242
335.100, 261.809
335.582, 264.178
336.064, 254.745
336.546, 249.678
337.028, 254.427
337.510, 267.062
337.992, 270.203
338.474, 261.230
338.957, 250.690
339.439, 245.576
339.921, 245.222
340.403, 250.825
340.885, 265.375
341.367, 284.039
341.849, 290.515
342.331, 283.645
342.813, 273.357
343.296, 263.235
343.778, 253.515
344.260, 253.281
344.742, 266.420
345.224, 284.003
345.706, 286.285
346.188, 273.923
346.670, 265.666
347.152, 278.329
347.635, 304.618
348.117, 315.137
348.599, 305.233
349.081, 292.435
349.563, 301.547
350.045, 327.573
350.527, 351.624
351.009, 363.089
351.491, 367.060
351.974, 368.487
352.456, 367.037
352.938, 372.082
353.420, 403.197
353.902, 445.656
354.384, 472.329
354.866, 454.901
355.349, 429.960
355.831, 432.598
356.313, 460.843
356.795, 496.157
357.277, 535.170
357.759, 571.916
358.241, 599.032
358.723, 610.630
359.205, 617.328
359.688, 620.581
360.170, 622.856
360.652, 632.582
361.134, 662.233
361.616, 694.910
362.098, 719.274
362.580, 730.597
363.062, 739.103
363.544, 741.624
364.027, 743.877
364.509, 712.354
364.991, 697.293
365.473, 678.222
365.955, 655.365
366.437, 617.390
366.919, 598.926
367.401, 572.638
367.884, 546.018
368.366, 526.270
368.848, 452.080
369.330, 398.746
369.812, 354.158
370.294, 318.100
370.776, 295.572
371.258, 299.517
371.741, 306.092
372.223, 295.551
372.705, 254.131
373.187, 217.788
373.669, 189.019
374.151, 170.215
374.633, 163.129
375.115, 170.845
375.597, 187.186
376.079, 210.630
376.562, 247.773
377.044, 267.933
377.526, 264.101
378.008, 250.168
378.490, 260.764
378.972, 299.081
379.454, 332.677
379.936, 345.373
380.419, 339.703
380.901, 335.413
381.383, 332.397
381.865, 336.976
382.347, 363.187
382.829, 405.643
383.311, 437.398
383.793, 446.565
384.276, 441.858
384.758, 436.771
385.240, 453.606
385.722, 498.940
386.204, 536.887
386.686, 569.397
387.168, 575.507
387.650, 615.822
388.132, 640.600
388.615, 664.814
389.097, 708.593
389.579, 716.327
390.061, 759.815
390.543, 789.050
391.025, 814.997
391.507, 842.719
391.989, 879.910
392.471, 915.661
392.954, 949.922
393.436, 981.901
393.918, 1010.542
394.400, 1037.719
394.882, 1062.102
395.364, 1082.276
395.846, 1110.409
396.328, 1161.937
396.810, 1217.539
397.293, 1258.783
397.775, 1277.602
398.257, 1287.627
398.739, 1292.627
399.221, 1291.872
399.703, 1277.525
400.185, 1247.333
400.668, 1205.360
401.150, 1153.160
401.632, 1086.270
402.114, 1016.644
402.596, 940.938
403.078, 863.594
403.560, 797.997
404.042, 748.160
404.524, 699.966
405.007, 646.505
405.489, 586.692
405.971, 532.459
406.453, 484.073
406.935, 440.597
407.417, 401.571
407.899, 367.170
408.381, 336.307
408.863, 309.686
409.346, 286.023
409.828, 258.981
410.310, 227.937
410.792, 203.064
411.274, 201.872
411.756, 215.200
412.238, 210.689
412.720, 174.593
413.203, 133.610
413.685, 127.898
414.167, 149.637
414.649, 166.994
415.131, 153.782
415.613, 129.666
416.095, 120.458
416.577, 131.082
417.060, 137.967
417.542, 118.959
418.024, 86.988
418.506, 60.420
418.988, 48.515
419.470, 42.494
419.952, 38.892
420.434, 37.575
420.916, 38.844
421.398, 46.127
421.881, 54.027
422.363, 58.870
422.845, 55.966
423.327, 55.088
423.809, 63.114
424.291, 74.703
424.773, 74.292
425.255, 46.393
425.738, 21.735
426.220, 10.417
426.702, 15.727
427.184, 23.958
427.666, 41.217
428.148, 56.214
428.630, 51.933
429.112, 17.727
429.595, 3.388
430.077, 12.819
430.559, 19.953
431.041, 18.503
431.523, 17.217
432.005, 8.716
432.487, 17.966
432.969, 27.966
433.451, 13.311
433.934, 44.165
434.416, 29.959
434.898, 33.785
435.380, 29.403
435.862, 42.891
436.344, 51.374
436.826, 33.057
437.308, 19.415
437.790, 11.005
438.273, 8.484
438.755, 19.489
439.237, 35.521
439.719, 42.473
440.201, 26.467
440.683, 8.889
441.165, 8.492
441.647, 21.187
442.129, 28.836
442.612, 13.789
443.094, 3.466
443.576, 6.962
444.058, 15.925
444.540, 28.455
445.022, 15.287
445.504, 12.970
445.987, 39.536
446.469, 63.545
446.951, 84.297
447.433, 102.232
447.915, 117.353
448.397, 127.970
448.879, 133.508
449.361, 135.156
449.843, 132.330
450.326, 119.762
450.808, 116.822
451.290, 128.970
451.772, 149.779
452.254, 161.616
452.736, 163.194
453.218, 160.775
453.700, 155.138
454.182, 146.628
454.665, 144.264
455.147, 148.682
455.629, 156.538
456.111, 165.006
456.593, 173.779
457.075, 181.517
457.557, 185.846
458.039, 190.929
458.522, 207.811
459.004, 234.186
459.486, 253.229
459.968, 242.227
460.450, 222.594
460.932, 220.309
461.414, 242.355
461.896, 272.349
462.379, 312.207
462.861, 351.025
463.343, 371.121
463.825, 334.260
464.307, 306.639
464.789, 324.364
465.271, 388.798
465.753, 443.218
466.235, 469.260
466.717, 485.460
467.200, 504.628
467.682, 530.303
468.164, 554.585
468.646, 572.456
469.128, 589.845
469.610, 620.851
470.092, 662.718
470.574, 701.958
471.057, 738.696
471.539, 765.466
472.021, 805.107
472.503, 839.588
472.985, 873.858
473.467, 912.479
473.949, 934.098
474.431, 952.130
474.914, 951.899
475.396, 946.293
475.878, 966.883
476.360, 1010.376
476.842, 1047.273
477.324, 1056.101
477.806, 1047.642
478.288, 1037.807
478.770, 1027.371
479.253, 1021.146
479.735, 1028.836
480.217, 1041.959
480.699, 1047.922
481.181, 1039.137
481.663, 1024.564
482.145, 1006.621
482.627, 986.116
483.109, 966.286
483.592, 947.216
484.074, 929.042
484.556, 911.730
485.038, 892.055
485.520, 879.981
486.002, 884.384
486.484, 893.268
486.966, 891.638
487.448, 873.717
487.931, 854.539
488.413, 836.056
488.895, 817.820
489.377, 794.770
489.859, 766.482
490.341, 742.499
490.823, 735.984
491.306, 749.279
491.788, 742.580
492.270, 714.345
492.752, 672.281
493.234, 624.469
493.716, 571.738
494.198, 524.490
494.680, 492.271
495.162, 468.174
495.645, 443.469
496.127, 417.443
496.609, 388.073
497.091, 349.990
497.573, 309.762
498.055, 275.678
498.537, 249.767
499.019, 227.746
499.501, 204.297
499.984, 183.502
500.466, 172.664
500.948, 190.410
501.430, 201.898
501.912, 191.152
502.394, 157.562
502.876, 126.490
503.358, 96.037
503.841, 70.694
504.323, 53.981
504.805, 47.760
505.287, 47.197
505.769, 57.334
506.251, 69.093
506.733, 62.897
507.215, 33.511
507.698, 9.447
508.180, 2.423
508.662, 9.032
509.144, 11.719
509.626, 10.391
510.108, 6.399
510.590, 2.047
511.072, 12.327
511.554, 16.312
512.036, 11.598
512.519, 3.415
513.001, 7.062
513.483, 16.844
513.965, 18.861
514.447, 1.088
514.929, 21.145
515.411, 24.094
515.893, 10.715
516.375, 1.365
516.858, 1.235
517.340, 0.150
517.822, 5.093
518.304, 24.747
518.786, 39.905
519.268, 40.344
519.750, 37.582
520.232, 50.428
520.715, 91.723
521.197, 127.241
521.679, 147.287
522.161, 153.145
522.643, 162.568
523.125, 176.309
523.607, 191.478
524.089, 204.696
524.571, 216.231
525.054, 223.750
525.536, 215.601
526.018, 254.658
526.500, 322.105
526.982, 382.681
527.464, 436.749
527.946, 464.821
528.429, 526.507
528.911, 574.733
529.393, 629.669
529.875, 660.534
530.357, 698.570
530.839, 744.485
531.321, 799.740
531.803, 867.850
532.286, 935.826
532.768, 992.446
533.250, 1049.006
533.732, 1117.566
534.214, 1208.474
534.696, 1302.804
535.178, 1397.824
535.660, 1494.199
536.142, 1596.007
536.625, 1699.775
537.107, 1817.425
537.589, 1959.279
538.071, 2128.784
538.553, 2287.187
539.035, 2432.362
539.517, 2577.426
539.999, 2731.910
540.481, 2898.766
540.964, 3090.975
541.446, 3316.291
541.928, 3562.224
542.410, 3806.896
542.892, 4054.519
543.374, 4320.868
543.856, 4625.052
544.338, 4948.845
544.820, 5275.878
545.303, 5601.493
545.785, 5941.337
546.267, 6308.734
546.749, 6693.292
547.231, 7087.163
547.713, 7485.587
548.195, 7897.279
548.677, 8315.414
549.159, 8750.591
549.642, 9220.229
550.124, 9760.095
550.606, 10278.950
551.088, 10743.162
551.570, 11154.546
552.052, 11630.599
552.534, 12190.361
553.016, 12759.298
553.499, 13281.255
553.981, 13755.795
554.463, 14211.198
554.945, 14661.552
555.427, 15052.714
555.909, 15328.822
556.391, 15489.542
556.873, 15533.989
557.356, 15467.271
557.838, 15279.579
558.320, 14961.344
558.802, 14515.751
559.284, 13942.175
559.766, 13165.258
560.248, 12315.402
560.730, 11463.671
561.213, 10632.919
561.695, 9809.998
562.177, 8965.518
562.659, 8139.907
563.141, 7377.846
563.623, 6678.237
564.105, 6032.491
564.587, 5440.047
565.069, 4906.931
565.552, 4447.695
566.034, 4076.168
566.516, 3736.845
566.998, 3406.712
567.480, 3091.089
567.962, 2800.731
568.444, 2537.802
568.926, 2303.404
569.408, 2113.190
569.891, 1954.497
570.373, 1801.882
570.855, 1640.396
571.337, 1514.790
571.819, 1407.540
572.301, 1342.458
572.783, 1266.857
573.265, 1181.552
573.747, 1057.771
574.230, 984.091
574.712, 895.019
575.194, 817.801
575.676, 751.770
576.158, 693.311
576.640, 641.905
577.122, 599.150
577.604, 559.722
578.086, 525.804
578.569, 492.798
579.051, 453.406
579.533, 406.460
580.015, 368.397
580.497, 343.496
580.979, 325.955
581.461, 303.501
581.943, 277.711
582.426, 258.276
582.908, 256.965
583.390, 260.918
583.872, 251.849
584.354, 230.750
584.836, 208.018
585.318, 186.826
585.800, 168.544
586.282, 153.372
586.765, 139.854
587.247, 136.370
587.729, 156.041
588.211, 179.765
588.693, 183.165
589.175, 152.936
589.657, 124.495
590.140, 104.313
590.622, 89.988
591.104, 69.555
591.586, 42.089
592.068, 23.774
592.550, 31.312
593.032, 58.208
593.514, 66.843
593.996, 56.686
594.479, 42.856
594.961, 37.154
595.443, 37.456
595.925, 40.127
596.407, 45.246
596.889, 49.321
597.371, 50.169
597.853, 47.256
598.335, 40.202
598.818, 20.775
599.300, 8.178
599.782, 14.496
600.264, 34.779
600.746, 44.808
601.228, 33.516
601.710, 25.227
602.192, 30.479
602.674, 49.518
603.157, 54.093
603.639, 41.781
604.121, 24.465
604.603, 9.219
605.085, 3.519
605.567, 8.851
606.049, 5.585
606.531, 2.988
607.013, 15.921
607.496, 31.308
607.978, 43.938
608.460, 53.966
608.942, 57.815
609.424, 46.436
609.906, 25.075
610.388, 12.126
610.870, 19.628
