##NAMES=Hydroxyapophyllite-(K)
##RRUFFID=R050169
##IDEAL CHEMISTRY=KCa_4_Si_8_O_20_(OH)&#183;8H_2_O
##LOCALITY=Christmas mine, Christmas, Gila County, Arizona, USA
##OWNER=RRUFF
##SOURCE=Marcus Origlieri
##DESCRIPTION=Colorless prismatic crystals associated with kinoite, R050168
##STATUS=The identification of this mineral is confirmed by single-crystal X-ray diffraction and chemical analysis.
##URL=rruff.info/R050169
##MEASURED CHEMISTRY=K_1.00_Ca_4.00_Si_8.00_O_20_((OH)_0.98_F_0.02_)_Σ=1_·8H_2_O
129.6975, 0.0000000E+00
130.1796, 5.887939
130.6617, 1.897583
131.1439, 2.997253
131.6260, 0.7795410
132.1081, 7.239136
132.5902, 15.55112
133.0723, 23.26187
133.5544, 31.17047
134.0366, 39.05194
134.5187, 46.88510
135.0008, 54.42319
135.4829, 61.15143
135.9650, 67.18185
136.4471, 76.89981
136.9293, 93.29593
137.4114, 109.7955
137.8935, 122.8028
138.3756, 134.1017
138.8577, 149.3549
139.3398, 174.0052
139.8220, 208.2598
140.3041, 227.8172
140.7862, 227.6676
141.2683, 221.4609
141.7504, 211.7755
142.2325, 200.2757
142.7147, 190.6630
143.1968, 186.2887
143.6789, 187.2669
144.1610, 184.8223
144.6431, 176.5146
145.1252, 167.2931
145.6074, 158.8316
146.0895, 151.5959
146.5716, 147.0481
147.0537, 147.0138
147.5358, 151.6088
148.0179, 154.3590
148.5001, 153.3702
148.9822, 151.9538
149.4643, 152.9227
149.9464, 156.3252
150.4285, 159.5380
150.9106, 160.1611
151.3928, 158.4230
151.8749, 157.7496
152.3570, 159.5539
152.8391, 161.7519
153.3212, 161.5399
153.8033, 158.5967
154.2855, 157.0909
154.7676, 161.1357
155.2497, 169.7054
155.7318, 178.2568
156.2139, 185.3720
156.6960, 192.4948
157.1782, 201.1362
157.6603, 211.3646
158.1424, 223.1385
158.6245, 235.0340
159.1066, 248.1887
159.5887, 266.5566
160.0709, 289.8019
160.5530, 319.3013
161.0351, 357.9170
161.5172, 406.7505
161.9993, 460.1176
162.4814, 517.4860
162.9636, 576.2313
163.4457, 632.3693
163.9278, 687.4576
164.4099, 737.9252
164.8920, 778.2394
165.3741, 810.0535
165.8563, 826.2075
166.3384, 822.3862
166.8205, 801.0235
167.3026, 762.5554
167.7847, 698.4836
168.2668, 619.9849
168.7490, 550.6491
169.2311, 491.3815
169.7132, 439.1667
170.1953, 391.7480
170.6774, 349.4802
171.1595, 313.6921
171.6417, 285.6509
172.1238, 264.2074
172.6059, 246.7093
173.0880, 233.4905
173.5701, 223.9490
174.0522, 218.7468
174.5344, 216.2685
175.0165, 214.6708
175.4986, 214.0128
175.9807, 213.0648
176.4628, 207.5952
176.9449, 193.8998
177.4271, 182.5771
177.9092, 177.1171
178.3913, 176.1966
178.8734, 178.1963
179.3555, 182.4448
179.8376, 189.0253
180.3197, 198.4903
180.8019, 212.2759
181.2840, 226.5753
181.7661, 241.4073
182.2482, 255.6429
182.7303, 267.0976
183.2124, 273.8109
183.6946, 278.5494
184.1767, 290.0665
184.6588, 313.8252
185.1409, 334.8162
185.6230, 351.4108
186.1051, 363.4536
186.5873, 371.8921
187.0694, 376.1023
187.5515, 374.8483
188.0336, 378.0873
188.5157, 388.3851
188.9978, 399.6557
189.4800, 410.0486
189.9621, 420.6021
190.4442, 432.4935
190.9263, 446.2498
191.4084, 462.0232
191.8905, 480.2792
192.3727, 501.4593
192.8548, 524.2584
193.3369, 547.6613
193.8190, 572.2966
194.3011, 600.1974
194.7832, 632.3139
195.2654, 665.3984
195.7475, 690.9034
196.2296, 706.2707
196.7117, 719.0322
197.1938, 733.1981
197.6759, 743.7441
198.1581, 746.0310
198.6402, 738.5269
199.1223, 723.0894
199.6044, 701.9090
200.0865, 669.4181
200.5686, 642.3975
201.0508, 626.7290
201.5329, 613.2707
202.0150, 594.6597
202.4971, 568.9500
202.9792, 540.5504
203.4613, 516.9769
203.9435, 502.0515
204.4256, 483.3840
204.9077, 455.8634
205.3898, 428.0738
205.8719, 405.8562
206.3540, 390.3133
206.8362, 378.5397
207.3183, 366.8184
207.8004, 355.5198
208.2825, 343.5023
208.7646, 327.4533
209.2467, 313.2288
209.7289, 305.9572
210.2110, 305.2917
210.6931, 305.6137
211.1752, 299.8000
211.6573, 285.3005
212.1395, 274.1867
212.6216, 269.7675
213.1037, 265.7156
213.5858, 258.7591
214.0679, 249.0819
214.5500, 238.8690
215.0322, 229.8126
215.5143, 221.5573
215.9964, 217.2006
216.4785, 218.0548
216.9606, 221.4904
217.4427, 227.4351
217.9249, 235.3106
218.4070, 244.1222
218.8891, 253.1805
219.3712, 262.5024
219.8533, 271.4232
220.3354, 278.1052
220.8176, 286.2165
221.2997, 297.9939
221.7818, 311.9896
222.2639, 325.1775
222.7460, 335.1127
223.2281, 342.3262
223.7103, 351.6862
224.1924, 365.7508
224.6745, 379.3565
225.1566, 391.4135
225.6387, 402.3737
226.1208, 413.6874
226.6030, 426.5885
227.0851, 439.4314
227.5672, 445.1912
228.0493, 440.4337
228.5314, 432.3637
229.0135, 421.5697
229.4957, 408.6714
229.9778, 394.2546
230.4599, 378.5809
230.9420, 361.5874
231.4241, 343.0791
231.9062, 323.8073
232.3884, 301.4207
232.8705, 273.8636
233.3526, 244.6362
233.8347, 216.2934
234.3168, 189.8107
234.7989, 164.5247
235.2811, 138.2220
235.7632, 105.9911
236.2453, 84.93372
236.7274, 86.49817
237.2095, 91.11639
237.6916, 84.52158
238.1738, 64.59991
238.6559, 40.76709
239.1380, 25.05530
239.6201, 17.96052
240.1022, 18.48345
240.5843, 17.93777
241.0665, 16.38803
241.5486, 10.41219
242.0307, 10.47088
242.5128, 8.306007
242.9949, 6.183325
243.4770, 7.488980
243.9592, 2.872346
244.4413, 4.404006
244.9234, 3.676053
245.4055, 4.184988
245.8876, 2.455772
246.3697, 1.599875
246.8519, 3.260988
247.3340, 3.744532
247.8161, 2.297968
248.2982, 3.711133
248.7803, 0.4024109
249.2624, 1.498317
249.7446, 4.573806
250.2267, 3.942146
250.7088, 6.094152
251.1909, 7.378019
251.6730, 4.223616
252.1551, 9.168738
252.6373, 10.81057
253.1194, 9.056386
253.6015, 14.14599
254.0836, 13.15726
254.5657, 14.52683
255.0478, 17.70559
255.5300, 27.36127
256.0121, 33.60526
256.4942, 38.64255
256.9763, 42.20984
257.4584, 45.29593
257.9406, 48.53635
258.4227, 52.05276
258.9048, 55.83258
259.3869, 59.91412
259.8690, 64.31210
260.3511, 68.68555
260.8333, 71.07736
261.3154, 75.36832
261.7975, 85.93219
262.2796, 102.3413
262.7617, 117.4563
263.2438, 125.5724
263.7260, 127.7477
264.2081, 129.5815
264.6902, 129.9920
265.1723, 132.8548
265.6544, 143.1128
266.1365, 158.4288
266.6187, 170.7983
267.1008, 175.5606
267.5829, 174.9970
268.0650, 172.2273
268.5471, 165.3562
269.0292, 162.7230
269.5114, 177.4894
269.9935, 199.9174
270.4756, 212.8349
270.9577, 207.7372
271.4398, 194.6733
271.9219, 183.0903
272.4041, 172.9293
272.8862, 166.3182
273.3683, 167.5767
273.8504, 171.5222
274.3325, 167.6540
274.8146, 150.5267
275.2968, 134.5934
275.7789, 130.9066
276.2610, 136.9909
276.7431, 142.6068
277.2252, 143.8794
277.7073, 143.5002
278.1895, 146.8168
278.6716, 155.1876
279.1537, 160.4837
279.6358, 156.7465
280.1179, 148.6929
280.6000, 144.6622
281.0822, 146.7340
281.5643, 151.3134
282.0464, 154.3356
282.5285, 155.6145
283.0106, 157.5392
283.4927, 159.6822
283.9749, 163.0233
284.4570, 169.7289
284.9391, 179.5370
285.4212, 188.0377
285.9033, 191.0121
286.3854, 188.5805
286.8676, 189.4904
287.3497, 196.4561
287.8318, 203.8001
288.3139, 205.9603
288.7960, 205.9809
289.2781, 213.3571
289.7603, 234.6706
290.2424, 265.1168
290.7245, 283.8582
291.2066, 277.2153
291.6887, 276.6197
292.1708, 290.5214
292.6530, 311.6825
293.1351, 331.2909
293.6172, 346.2372
294.0993, 358.9181
294.5814, 373.6589
295.0635, 393.7225
295.5457, 409.5258
296.0278, 416.6559
296.5099, 422.8303
296.9920, 434.5000
297.4741, 451.7360
297.9562, 469.1537
298.4384, 480.7513
298.9205, 484.8151
299.4026, 491.0137
299.8847, 503.3273
300.3668, 514.3970
300.8489, 520.7064
301.3311, 523.7650
301.8131, 526.5413
302.2953, 529.8491
302.7774, 534.6798
303.2595, 546.5550
303.7416, 573.5178
304.2237, 596.0808
304.7058, 605.8359
305.1880, 610.8587
305.6701, 621.5294
306.1522, 641.8885
306.6343, 664.2910
307.1164, 674.4686
307.5985, 667.7523
308.0807, 666.5311
308.5628, 678.3129
309.0449, 694.2158
309.5270, 709.9776
310.0091, 724.9991
310.4912, 739.4498
310.9734, 754.6868
311.4555, 770.3181
311.9376, 783.3544
312.4197, 794.9822
312.9018, 802.6641
313.3839, 801.9977
313.8661, 796.3873
314.3482, 794.8530
314.8303, 805.0788
315.3124, 820.2707
315.7945, 827.5002
316.2766, 825.2756
316.7588, 823.9969
317.2409, 832.7878
317.7230, 844.7684
318.2051, 848.0919
318.6872, 838.0929
319.1693, 824.9984
319.6515, 818.0101
320.1336, 815.0250
320.6157, 805.1001
321.0978, 781.6355
321.5799, 754.3525
322.0620, 741.1694
322.5442, 745.1403
323.0263, 741.9376
323.5084, 717.9782
323.9905, 685.8056
324.4726, 661.5912
324.9547, 647.9610
325.4369, 639.1403
325.9190, 631.4866
326.4011, 625.3040
326.8832, 609.4857
327.3653, 574.8265
327.8474, 539.2956
328.3296, 511.3430
328.8117, 490.7860
329.2938, 475.9645
329.7759, 466.4603
330.2580, 460.7592
330.7401, 452.2955
331.2223, 437.5051
331.7044, 424.3046
332.1865, 415.9214
332.6686, 408.3854
333.1507, 396.7206
333.6328, 379.6681
334.1150, 360.7419
334.5971, 345.1537
335.0792, 334.4059
335.5613, 323.1790
336.0434, 307.9012
336.5255, 295.3205
337.0077, 291.3542
337.4898, 293.8023
337.9719, 295.2464
338.4540, 289.6928
338.9361, 277.8639
339.4182, 266.1474
339.9004, 254.5194
340.3825, 243.1826
340.8646, 233.6010
341.3467, 223.7718
341.8288, 210.7479
342.3109, 192.9811
342.7931, 173.5876
343.2752, 156.1430
343.7573, 140.1957
344.2394, 129.7000
344.7215, 132.3070
345.2036, 135.3086
345.6858, 127.0421
346.1679, 107.2457
346.6500, 87.73169
347.1321, 75.46674
347.6142, 69.16434
348.0963, 66.20267
348.5785, 67.57214
349.0606, 68.38876
349.5427, 63.26886
350.0248, 54.30322
350.5069, 47.76154
350.9890, 48.30817
351.4712, 48.81506
351.9533, 41.09879
352.4354, 27.11026
352.9175, 17.70795
353.3996, 19.22266
353.8817, 27.06433
354.3639, 28.89117
354.8460, 22.07495
355.3281, 16.24374
355.8102, 13.64972
356.2923, 13.09842
356.7744, 14.47986
357.2566, 17.44348
357.7387, 18.51816
358.2208, 12.96283
358.7029, 1.645508
359.1850, 9.030212
359.6671, 2.387665
360.1493, 3.619843
360.6314, 0.8277590
361.1135, 7.700653
361.5956, 14.32990
362.0777, 14.43008
362.5598, 9.860504
363.0420, 7.344635
363.5241, 7.363312
364.0062, 8.892639
364.4883, 14.25711
364.9704, 19.38980
365.4525, 20.61746
365.9347, 17.29047
366.4168, 11.86053
366.8989, 6.654419
367.3810, 1.600800
367.8631, 2.697632
368.3452, 5.930786
368.8274, 8.718018
369.3095, 11.44659
369.7916, 14.03610
370.2737, 13.65936
370.7558, 18.98685
371.2379, 22.96960
371.7201, 25.68002
372.2022, 23.32352
372.6843, 27.49646
373.1664, 29.04495
373.6485, 30.48044
374.1306, 35.55719
374.6128, 33.90976
375.0949, 38.91809
375.5770, 38.53635
376.0591, 35.58154
376.5412, 32.64560
377.0233, 30.32077
377.5055, 28.54489
377.9876, 27.50992
378.4697, 27.33047
378.9518, 26.14517
379.4339, 21.48413
379.9160, 18.01614
380.3982, 18.90839
380.8803, 23.36905
381.3624, 29.25836
381.8445, 35.64844
382.3266, 41.85852
382.8087, 45.81985
383.2909, 41.24887
383.7730, 42.92776
384.2551, 56.80414
384.7372, 73.26978
385.2193, 84.03964
385.7014, 88.15390
386.1836, 90.76172
386.6657, 97.30566
387.1478, 107.9867
387.6299, 118.3073
388.1120, 129.6290
388.5941, 139.0103
389.0763, 142.3655
389.5584, 143.7707
390.0405, 150.1268
390.5226, 165.4294
391.0047, 185.4064
391.4868, 202.5605
391.9690, 216.1343
392.4511, 229.7994
392.9332, 243.8261
393.4153, 259.2866
393.8974, 277.1510
394.3795, 297.2016
394.8617, 316.9131
395.3438, 334.9894
395.8259, 351.9144
396.3080, 368.6109
396.7901, 385.3962
397.2722, 403.2158
397.7544, 423.9477
398.2365, 445.0164
398.7186, 458.2230
399.2007, 456.5393
399.6828, 456.6589
400.1649, 467.0531
400.6471, 482.2749
401.1292, 494.0114
401.6113, 499.4568
402.0934, 500.0770
402.5755, 498.2826
403.0576, 494.1211
403.5398, 488.5377
404.0219, 480.1194
404.5040, 471.2139
404.9861, 463.4683
405.4682, 456.2915
405.9503, 447.3695
406.4325, 434.6178
406.9146, 420.6021
407.3967, 415.8092
407.8788, 428.4083
408.3609, 433.2722
408.8430, 417.9054
409.3252, 398.6098
409.8073, 389.0709
410.2894, 391.0121
410.7715, 394.4542
411.2536, 388.9993
411.7357, 377.1649
412.2179, 372.5177
412.7000, 377.8160
413.1821, 385.6856
413.6642, 389.0060
414.1463, 391.4993
414.6284, 401.3434
415.1106, 423.6581
415.5927, 449.4064
416.0748, 473.0254
416.5569, 494.3961
417.0390, 513.6139
417.5211, 531.0776
418.0033, 548.8540
418.4854, 569.8064
418.9675, 594.2495
419.4496, 619.3066
419.9317, 644.5878
420.4138, 671.5672
420.8960, 698.8803
421.3781, 728.1161
421.8602, 764.8398
422.3423, 813.5886
422.8244, 870.6264
423.3065, 919.6036
423.7887, 954.9053
424.2708, 991.6868
424.7529, 1036.710
425.2350, 1080.336
425.7171, 1112.336
426.1992, 1132.437
426.6814, 1150.784
427.1635, 1178.979
427.6456, 1215.856
428.1277, 1246.053
428.6098, 1273.034
429.0919, 1286.409
429.5741, 1279.146
430.0562, 1255.888
430.5383, 1221.838
431.0204, 1177.318
431.5025, 1124.063
431.9846, 1061.839
432.4668, 991.7760
432.9489, 916.2506
433.4310, 834.1077
433.9131, 752.6353
434.3952, 680.4279
434.8773, 618.6267
435.3595, 559.7276
435.8416, 504.1906
436.3237, 451.0032
436.8058, 397.7778
437.2879, 346.1987
437.7701, 299.7920
438.2522, 260.4406
438.7343, 227.6137
439.2164, 200.3537
439.6985, 181.4866
440.1806, 163.4523
440.6628, 146.1907
441.1449, 129.3284
441.6270, 112.6962
442.1091, 96.24719
442.5912, 79.67157
443.0733, 62.17657
443.5555, 44.68463
444.0376, 23.70842
444.5197, 29.38276
445.0018, 31.34956
445.4839, 29.81546
445.9660, 13.87025
446.4482, 16.85806
446.9303, 12.45737
447.4124, 7.889463
447.8945, 13.94797
448.3766, 0.8282447
448.8587, 7.003814
449.3409, 5.675012
449.8230, 7.987675
450.3051, 2.864586
450.7872, 0.2237277
451.2693, 5.304410
451.7514, 6.329750
452.2336, 0.9011771
452.7157, 4.286664
453.1978, -7.680464
453.6799, -5.909360
454.1620, 1.869727
454.6441, -2.469005
455.1263, 1.763670
455.6084, 2.927605
456.0905, -10.35699
456.5726, 1.874080
457.0547, 3.273466
457.5368, -6.452666
458.0190, 5.334393
458.5011, -2.554976
458.9832, -3.228829
459.4653, 1.562619
459.9474, 0.9461635
460.4295, 9.221040
460.9117, 9.208961
461.3938, 8.585102
461.8759, 11.38950
462.3580, 5.022722
462.8401, 16.07511
463.3222, 15.46733
463.8044, 20.86833
464.2865, 27.74014
464.7686, 24.57198
465.2507, 32.32490
465.7328, 23.50342
466.2149, 28.81071
466.6971, 46.02155
467.1792, 62.98132
467.6613, 88.88306
468.1434, 111.6921
468.6255, 127.1539
469.1076, 143.2963
469.5898, 164.4088
470.0719, 190.5168
470.5540, 220.3289
471.0361, 253.7498
471.5182, 288.8230
472.0003, 319.3539
472.4825, 340.9773
472.9646, 369.4578
473.4467, 412.1031
473.9288, 459.9539
474.4109, 506.3002
474.8930, 551.5122
475.3752, 603.0751
475.8573, 667.1459
476.3394, 739.4230
476.8215, 814.4821
477.3036, 892.0679
477.7857, 967.8414
478.2679, 1036.435
478.7500, 1104.309
479.2321, 1190.651
479.7142, 1304.698
480.1963, 1409.575
480.6784, 1495.016
481.1606, 1570.472
481.6427, 1647.137
482.1248, 1723.804
482.6069, 1790.437
483.0890, 1841.659
483.5711, 1874.901
484.0533, 1876.432
484.5354, 1839.021
485.0175, 1779.019
485.4996, 1690.611
485.9817, 1589.616
486.4638, 1487.240
486.9460, 1385.111
487.4281, 1282.065
487.9102, 1173.206
488.3923, 1062.781
488.8744, 963.9177
489.3565, 877.5505
489.8387, 798.7946
490.3208, 726.6556
490.8029, 660.7123
491.2850, 598.7084
491.7671, 539.1688
492.2492, 487.2711
492.7314, 447.8159
493.2135, 415.6929
493.6956, 385.4200
494.1777, 356.5410
494.6598, 331.1575
495.1419, 311.1495
495.6241, 295.9005
496.1062, 280.8995
496.5883, 265.1002
497.0704, 251.2384
497.5525, 241.2736
498.0346, 232.0334
498.5168, 220.9610
498.9989, 207.7949
499.4810, 193.8660
499.9631, 179.6193
500.4452, 165.4851
500.9273, 153.4213
501.4095, 143.6633
501.8916, 134.9072
502.3737, 126.2383
502.8558, 118.4786
503.3379, 113.3390
503.8200, 111.9116
504.3022, 108.9491
504.7843, 100.0352
505.2664, 89.97949
505.7485, 84.83618
506.2306, 84.12146
506.7127, 83.43365
507.1949, 79.76965
507.6770, 74.40674
508.1591, 72.55554
508.6412, 79.15741
509.1233, 81.92731
509.6054, 76.46143
510.0876, 70.45685
510.5697, 69.55945
511.0518, 73.78870
511.5339, 79.74475
512.0161, 85.58740
512.4982, 90.73315
512.9803, 93.26355
513.4624, 92.91083
513.9445, 95.46887
514.4266, 102.8239
514.9088, 112.9703
515.3909, 123.3402
515.8730, 134.1660
516.3551, 146.5724
516.8372, 159.8329
517.3193, 175.8247
517.8015, 199.0627
518.2836, 226.6982
518.7657, 248.7757
519.2478, 259.4474
519.7299, 264.6808
520.2120, 278.4495
520.6942, 304.1015
521.1763, 332.3796
521.6584, 366.3180
522.1405, 399.5476
522.6226, 426.7856
523.1047, 450.5695
523.5869, 477.2188
524.0690, 510.6374
524.5511, 547.6245
525.0332, 583.4390
525.5153, 618.0840
525.9974, 651.4827
526.4796, 681.8798
526.9617, 713.9286
527.4438, 754.6409
527.9259, 802.8343
528.4080, 846.9982
528.8901, 881.5389
529.3723, 915.6511
529.8544, 959.5817
530.3365, 1006.209
530.8186, 1039.419
531.3007, 1054.167
531.7828, 1061.854
532.2650, 1078.899
532.7471, 1107.995
533.2292, 1129.954
533.7113, 1138.455
534.1934, 1146.915
534.6755, 1162.832
535.1577, 1179.801
535.6398, 1189.109
536.1219, 1188.115
536.6040, 1180.994
537.0861, 1170.438
537.5682, 1156.863
538.0504, 1142.175
538.5325, 1127.032
539.0146, 1108.124
539.4967, 1083.239
539.9788, 1052.662
540.4609, 1018.721
540.9431, 973.7283
541.4252, 935.7836
541.9073, 915.0387
542.3894, 898.7877
542.8715, 872.1094
543.3536, 835.7278
543.8358, 803.9501
544.3179, 789.4531
544.8000, 787.4260
545.2821, 776.4418
545.7642, 753.7299
546.2463, 729.6262
546.7285, 702.6837
547.2106, 678.5156
547.6927, 663.2719
548.1748, 656.2711
548.6569, 647.8519
549.1390, 628.4814
549.6211, 609.4737
550.1032, 605.5456
550.5853, 613.8300
551.0674, 621.6505
551.5496, 624.2352
552.0317, 622.6817
552.5138, 618.0458
552.9959, 607.5076
553.4780, 603.6027
553.9601, 609.5135
554.4423, 617.6117
554.9244, 627.5175
555.4065, 636.7627
555.8886, 639.9634
556.3707, 635.3229
556.8528, 632.5503
557.3350, 645.9890
557.8171, 673.6886
558.2992, 697.2347
558.7813, 713.8450
559.2634, 729.7239
559.7455, 747.4579
560.2277, 768.0192
560.7098, 793.0845
561.1919, 822.1453
561.6740, 857.3365
562.1561, 902.1667
562.6382, 951.0497
563.1204, 998.6898
563.6025, 1044.670
564.0846, 1091.463
564.5667, 1141.457
565.0488, 1193.569
565.5309, 1243.012
566.0131, 1284.880
566.4952, 1335.515
566.9773, 1402.425
567.4594, 1476.763
567.9415, 1556.809
568.4236, 1639.952
568.9058, 1717.557
569.3879, 1777.666
569.8700, 1838.194
570.3521, 1923.071
570.8342, 2025.889
571.3163, 2123.357
571.7985, 2207.832
572.2806, 2287.864
572.7627, 2372.026
573.2448, 2459.690
573.7269, 2557.159
574.2090, 2682.837
574.6912, 2798.744
575.1733, 2883.419
575.6554, 2958.265
576.1375, 3053.551
576.6196, 3174.433
577.1017, 3291.409
577.5839, 3378.728
578.0660, 3440.880
578.5481, 3492.348
579.0302, 3533.302
579.5123, 3563.531
579.9944, 3583.308
580.4766, 3591.773
580.9587, 3588.491
581.4408, 3578.296
581.9229, 3542.414
582.4050, 3461.114
582.8871, 3369.077
583.3693, 3294.345
583.8514, 3226.987
584.3335, 3138.728
584.8156, 3017.086
585.2977, 2878.623
585.7798, 2748.812
586.2620, 2629.155
586.7441, 2503.109
587.2262, 2363.363
587.7083, 2225.933
588.1904, 2105.497
588.6725, 1991.545
589.1547, 1864.222
589.6368, 1711.084
590.1189, 1569.099
590.6010, 1460.068
591.0831, 1369.682
591.5652, 1281.100
592.0474, 1192.956
592.5295, 1111.687
593.0116, 1042.288
593.4937, 981.8109
593.9758, 920.1064
594.4579, 856.1722
594.9401, 794.1348
595.4222, 733.1492
595.9043, 675.7607
596.3864, 624.0371
596.8685, 577.2044
597.3506, 533.2672
597.8328, 491.1738
598.3149, 452.7968
