##NAMES=Hydroxyapophyllite-(K)
##RRUFFID=R050169
##IDEAL CHEMISTRY=KCa_4_Si_8_O_20_(OH)&#183;8H_2_O
##LOCALITY=Christmas mine, Christmas, Gila County, Arizona, USA
##OWNER=RRUFF
##SOURCE=Marcus Origlieri
##DESCRIPTION=Colorless prismatic crystals associated with kinoite, R050168
##STATUS=The identification of this mineral is confirmed by single-crystal X-ray diffraction and chemical analysis.
##URL=rruff.info/R050169
##MEASURED CHEMISTRY=K_1.00_Ca_4.00_Si_8.00_O_20_((OH)_0.98_F_0.02_)_Σ=1_·8H_2_O
153.0366, 0.0000000E+00
153.5188, 5.199219
154.0009, 121.7998
154.4830, 369.1973
154.9651, 652.1299
155.4472, 935.6504
155.9293, 1187.596
156.4115, 1461.432
156.8936, 1770.080
157.3757, 2114.130
157.8578, 2493.562
158.3399, 2901.061
158.8221, 3299.527
159.3042, 3674.012
159.7863, 4034.360
160.2684, 4359.611
160.7505, 4673.684
161.2326, 4981.911
161.7148, 5268.820
162.1969, 5441.843
162.6790, 5422.334
163.1611, 5203.551
163.6432, 4825.287
164.1253, 4368.660
164.6075, 3841.584
165.0896, 3243.330
165.5717, 2655.171
166.0538, 2090.483
166.5359, 1569.846
167.0180, 1120.607
167.5002, 750.8984
167.9823, 454.4248
168.4644, 237.4941
168.9465, 106.4463
169.4286, 13.84668
169.9107, 74.74512
170.3929, 150.1709
170.8750, 194.3193
171.3571, 193.3154
171.8392, 158.2246
172.3213, 99.70605
172.8034, 19.75195
173.2856, 82.60840
173.7677, 210.1641
174.2498, 362.1074
174.7319, 532.3340
175.2140, 713.1543
175.6961, 910.8701
176.1783, 1131.880
176.6604, 1368.391
177.1425, 1639.208
177.6246, 1979.717
178.1067, 2380.243
178.5888, 2803.492
179.0710, 3190.665
179.5531, 3573.969
180.0352, 4024.562
180.5173, 4574.988
180.9994, 5179.840
181.4815, 5766.281
181.9637, 6339.150
182.4458, 6882.242
182.9279, 7433.519
183.4100, 7961.123
183.8921, 8357.545
184.3742, 8593.504
184.8564, 8678.969
185.3385, 8625.542
185.8206, 8431.855
186.3027, 8113.074
186.7848, 7614.149
187.2669, 6963.420
187.7491, 6362.010
188.2312, 5892.087
188.7133, 5528.070
189.1954, 5157.388
189.6775, 4772.318
190.1596, 4425.645
190.6418, 4187.096
191.1239, 4056.074
191.6060, 3962.324
192.0881, 3876.299
192.5702, 3801.459
193.0524, 3768.189
193.5345, 3778.092
194.0166, 3825.018
194.4987, 3903.109
194.9808, 4013.105
195.4629, 4143.809
195.9451, 4290.076
196.4272, 4453.904
196.9093, 4627.904
197.3914, 4811.900
197.8735, 5007.170
198.3556, 5218.750
198.8378, 5437.441
199.3199, 5665.820
199.8020, 5903.102
200.2841, 6142.586
200.7662, 6384.541
201.2483, 6635.588
201.7305, 6892.230
202.2126, 7147.016
202.6947, 7403.887
203.1768, 7644.146
203.6589, 7861.229
204.1410, 8054.986
204.6232, 8208.543
205.1053, 8310.521
205.5874, 8375.549
206.0695, 8457.809
206.5516, 8570.609
207.0337, 8665.668
207.5159, 8710.730
207.9980, 8700.980
208.4801, 8659.223
208.9622, 8587.607
209.4443, 8486.041
209.9264, 8351.598
210.4086, 8178.512
210.8907, 7978.385
211.3728, 7770.695
211.8549, 7552.908
212.3370, 7325.398
212.8191, 7071.234
213.3013, 6801.559
213.7834, 6592.387
214.2655, 6444.227
214.7476, 6355.600
215.2297, 6335.061
215.7118, 6405.545
216.1940, 6480.900
216.6761, 6547.475
217.1582, 6605.949
217.6403, 6661.906
218.1224, 6712.795
218.6045, 6763.406
219.0867, 6817.398
219.5688, 6872.033
220.0509, 6934.395
220.5330, 7007.473
221.0151, 7093.271
221.4972, 7169.678
221.9794, 7232.035
222.4615, 7291.107
222.9436, 7364.084
223.4257, 7470.939
223.9078, 7551.840
224.3899, 7595.477
224.8721, 7603.145
225.3542, 7567.352
225.8363, 7481.352
226.3184, 7358.318
226.8005, 7216.242
227.2827, 7073.404
227.7648, 6868.078
228.2469, 6573.721
228.7290, 6180.793
229.2111, 5800.322
229.6932, 5448.230
230.1754, 5104.494
230.6575, 4732.203
231.1396, 4301.035
231.6217, 3892.041
232.1038, 3530.607
232.5859, 3224.293
233.0681, 2924.779
233.5502, 2629.225
234.0323, 2343.646
234.5144, 2071.148
234.9965, 1805.252
235.4786, 1566.869
235.9608, 1365.307
236.4429, 1209.936
236.9250, 1058.014
237.4071, 908.3984
237.8892, 763.8594
238.3713, 627.8750
238.8535, 496.8008
239.3356, 380.3535
239.8177, 281.8887
240.2998, 202.4238
240.7819, 137.8203
241.2640, 94.27148
241.7462, 61.18555
242.2283, 17.15625
242.7104, 56.19141
243.1925, 109.9355
243.6746, 121.2910
244.1567, 69.94727
244.6389, 47.04883
245.1210, 65.65625
245.6031, 104.8711
246.0852, 129.5176
246.5673, 140.6016
247.0494, 135.2402
247.5316, 109.8398
248.0137, 57.81250
248.4958, 7.513672
248.9779, 40.30273
249.4600, 86.48633
249.9421, 132.2285
250.4243, 182.2695
250.9064, 223.9551
251.3885, 248.3691
251.8706, 243.8145
252.3527, 264.2383
252.8348, 323.6035
253.3170, 399.1426
253.7991, 444.3652
254.2812, 441.8105
254.7633, 441.3574
255.2454, 465.2324
255.7275, 524.6211
256.2097, 566.6504
256.6918, 592.7207
257.1739, 600.5957
257.6560, 579.2754
258.1381, 507.6250
258.6202, 445.6855
259.1024, 417.8340
259.5845, 431.3398
260.0666, 452.0605
260.5487, 483.7363
261.0308, 519.7441
261.5129, 547.4473
261.9951, 559.1621
262.4772, 580.3613
262.9593, 628.6504
263.4414, 718.4199
263.9235, 765.3086
264.4056, 754.7871
264.8878, 715.4941
265.3699, 697.9316
265.8520, 707.8555
266.3341, 723.0859
266.8162, 738.8047
267.2983, 757.2266
267.7805, 760.6641
268.2626, 749.0273
268.7447, 722.2109
269.2268, 676.5469
269.7089, 607.1406
270.1910, 536.6973
270.6732, 475.2148
271.1553, 424.7656
271.6374, 356.8184
272.1195, 253.7812
272.6016, 158.9980
273.0837, 162.9512
273.5659, 288.5098
274.0480, 395.3047
274.5301, 415.1719
275.0122, 343.4492
275.4943, 318.7168
275.9764, 350.2012
276.4586, 411.3594
276.9407, 467.7227
277.4228, 518.8320
277.9049, 561.9863
278.3870, 588.1504
278.8691, 598.9941
279.3513, 638.4590
279.8334, 714.2988
280.3155, 798.7246
280.7976, 850.1523
281.2798, 866.4707
281.7619, 887.4238
282.2440, 934.9883
282.7261, 1003.309
283.2082, 1041.758
283.6903, 1043.754
284.1725, 1040.098
284.6546, 1073.514
285.1367, 1142.178
285.6188, 1207.127
286.1009, 1244.658
286.5830, 1268.180
287.0652, 1330.828
287.5473, 1433.701
288.0294, 1556.809
288.5115, 1672.900
288.9936, 1787.207
289.4757, 1930.391
289.9579, 2132.496
290.4400, 2363.762
290.9221, 2546.098
291.4042, 2680.646
291.8863, 2805.662
292.3684, 2950.414
292.8506, 3110.781
293.3327, 3286.123
293.8148, 3505.039
294.2969, 3725.508
294.7790, 3862.629
295.2611, 3915.035
295.7433, 3925.568
296.2254, 3936.107
296.7075, 3937.027
297.1896, 3899.145
297.6717, 3807.699
298.1538, 3678.518
298.6360, 3536.947
299.1181, 3380.881
299.6002, 3201.516
300.0823, 2969.488
300.5644, 2709.463
301.0465, 2468.299
301.5287, 2266.109
302.0108, 2082.379
302.4929, 1898.029
302.9750, 1711.002
303.4571, 1523.613
303.9392, 1325.408
304.4214, 1131.133
304.9035, 955.8984
305.3856, 806.4238
305.8677, 680.0527
306.3498, 580.6953
306.8319, 504.6934
307.3141, 439.8047
307.7962, 380.7578
308.2783, 329.4805
308.7604, 287.8164
309.2425, 258.6758
309.7246, 235.3848
310.2068, 218.7148
310.6889, 205.1543
311.1710, 185.6035
311.6531, 146.4688
312.1352, 105.2285
312.6173, 76.78125
313.0995, 68.75391
313.5816, 58.91602
314.0637, 27.15430
314.5458, 13.12109
315.0279, 36.95703
315.5100, 25.42578
315.9922, 2.021484
316.4743, 20.54688
316.9564, 39.11719
317.4385, 63.87305
317.9206, 114.2715
318.4027, 169.1855
318.8849, 199.1230
319.3670, 151.4629
319.8491, 116.7754
320.3312, 140.8398
320.8133, 241.0566
321.2954, 314.0664
321.7776, 317.0059
322.2597, 292.3047
322.7418, 285.1465
323.2239, 299.1074
323.7060, 334.0957
324.1881, 405.5254
324.6703, 519.3027
325.1524, 595.9102
325.6345, 597.9238
326.1166, 576.6348
326.5987, 573.5938
327.0808, 608.7910
327.5630, 638.9902
328.0451, 662.7363
328.5272, 679.6074
329.0093, 677.7949
329.4914, 633.6562
329.9735, 592.2148
330.4557, 583.3516
330.9378, 622.0039
331.4199, 668.8145
331.9020, 730.9688
332.3841, 800.8926
332.8662, 840.0625
333.3484, 838.0352
333.8305, 820.4414
334.3126, 798.9961
334.7947, 770.9902
335.2768, 749.3184
335.7589, 737.5020
336.2411, 730.4121
336.7232, 716.1914
337.2053, 695.1973
337.6874, 667.3691
338.1695, 632.0977
338.6516, 589.0977
339.1338, 536.5605
339.6159, 470.4629
340.0980, 403.1562
340.5801, 362.3145
341.0622, 351.1777
341.5443, 330.5449
342.0265, 278.9883
342.5086, 200.8340
342.9907, 129.3008
343.4728, 63.99023
343.9549, 10.82422
344.4370, 16.05664
344.9192, 21.02930
345.4013, 34.23633
345.8834, 76.96289
346.3655, 128.9180
346.8476, 120.2402
347.3297, 49.24219
347.8119, 11.62891
348.2940, 30.32617
348.7761, 139.6270
349.2582, 208.1758
349.7403, 188.7969
350.2225, 132.7812
350.7046, 117.6582
351.1867, 138.4473
351.6688, 151.3203
352.1509, 115.5176
352.6331, 54.31445
353.1152, 1.572266
353.5973, 36.35742
354.0794, 62.05078
354.5615, 70.02344
355.0436, 66.08984
355.5258, 67.73633
356.0079, 84.23242
356.4900, 110.7480
356.9721, 148.9180
357.4542, 207.7598
357.9363, 248.6855
358.4185, 223.0645
358.9006, 167.6816
359.3827, 146.2246
359.8648, 216.4512
360.3469, 300.8770
360.8290, 354.1074
361.3112, 366.1914
361.7933, 393.8164
362.2754, 476.2695
362.7575, 575.9043
363.2396, 652.1367
363.7217, 668.7051
364.2039, 686.9746
364.6860, 718.5449
365.1681, 764.1309
365.6502, 827.5156
366.1323, 928.3379
366.6144, 1035.875
367.0966, 1129.371
367.5787, 1204.951
368.0608, 1268.990
368.5429, 1318.805
369.0250, 1356.576
369.5071, 1391.379
369.9893, 1416.572
370.4714, 1446.248
370.9535, 1493.129
371.4356, 1587.229
371.9177, 1625.227
372.3998, 1581.723
372.8820, 1492.271
373.3641, 1443.184
373.8462, 1455.197
374.3283, 1454.973
374.8104, 1414.182
375.2925, 1330.674
375.7747, 1224.619
376.2568, 1090.557
376.7389, 943.1934
377.2210, 793.8984
377.7031, 640.3457
378.1852, 518.7676
378.6674, 441.3066
379.1495, 404.2578
379.6316, 399.5059
380.1137, 430.5957
380.5958, 461.3789
381.0779, 456.1152
381.5601, 420.1992
382.0422, 379.5039
382.5243, 336.5840
383.0064, 295.1172
383.4885, 257.5000
383.9706, 224.5801
384.4528, 204.4121
384.9349, 209.2871
385.4170, 228.6523
385.8991, 246.7871
386.3812, 263.0156
386.8633, 273.2383
387.3455, 267.9805
387.8276, 253.5684
388.3097, 244.5957
388.7918, 254.4082
389.2739, 268.7715
389.7560, 278.6465
390.2382, 283.7246
390.7203, 279.1445
391.2024, 257.3789
391.6845, 226.2109
392.1666, 194.3848
392.6487, 153.2090
393.1309, 122.8965
393.6130, 119.2637
394.0951, 139.4180
394.5772, 149.8359
395.0593, 126.9141
395.5414, 101.1055
396.0236, 91.58008
396.5057, 122.6270
396.9878, 144.4219
397.4699, 145.7285
397.9520, 133.5020
398.4341, 129.6914
398.9163, 145.2012
399.3984, 157.8848
399.8805, 160.3203
400.3626, 151.8496
400.8447, 132.4531
401.3268, 85.06250
401.8090, 37.44727
402.2911, 38.83789
402.7732, 116.8438
403.2553, 173.8203
403.7374, 170.8418
404.2195, 112.5527
404.7017, 105.2676
405.1838, 169.7969
405.6659, 242.3516
406.1480, 251.9023
406.6301, 193.4238
407.1122, 137.9551
407.5944, 93.78711
408.0765, 26.07187
408.5586, 94.31689
409.0407, 134.8242
409.5228, 149.0838
410.0049, 58.48199
410.4871, 103.2879
410.9692, 93.82816
411.4513, 114.0938
411.9334, 160.3672
412.4155, 170.3105
412.8976, 158.3672
413.3798, 165.9785
413.8619, 230.9258
414.3440, 317.6152
414.8261, 391.3613
415.3082, 450.9766
415.7903, 500.2969
416.2725, 520.2988
416.7546, 538.5879
417.2367, 587.5547
417.7188, 694.7969
418.2009, 818.2891
418.6830, 925.3047
419.1652, 1024.328
419.6473, 1148.814
420.1294, 1330.680
420.6115, 1527.668
421.0937, 1720.455
421.5758, 1899.248
422.0579, 2081.105
422.5400, 2252.910
423.0221, 2432.217
423.5042, 2651.797
423.9864, 2936.695
424.4685, 3231.541
424.9506, 3522.537
425.4327, 3802.418
425.9148, 4125.680
426.3969, 4516.896
426.8791, 4923.268
427.3612, 5291.957
427.8433, 5606.652
428.3254, 5937.715
428.8075, 6316.314
429.2896, 6708.193
429.7718, 7009.873
430.2539, 7233.584
430.7360, 7313.912
431.2181, 7191.621
431.7002, 6874.357
432.1823, 6460.590
432.6645, 5940.158
433.1466, 5362.617
433.6287, 4768.379
434.1108, 4170.127
434.5929, 3626.990
435.0750, 3184.307
435.5572, 2808.113
436.0393, 2421.592
436.5214, 2028.389
437.0035, 1705.279
437.4856, 1554.979
437.9677, 1502.254
438.4499, 1447.902
438.9320, 1375.799
439.4141, 1280.209
439.8962, 1131.367
440.3783, 953.8613
440.8604, 807.0273
441.3426, 746.0312
441.8247, 702.9844
442.3068, 633.1035
442.7889, 520.0488
443.2710, 436.8262
443.7531, 434.4121
444.2353, 459.4629
444.7174, 453.1699
445.1995, 359.5273
445.6816, 286.2246
446.1637, 252.8086
446.6458, 257.0703
447.1280, 277.5723
447.6101, 336.9336
448.0922, 387.6523
448.5743, 399.1113
449.0564, 349.2188
449.5385, 316.5430
450.0207, 296.3340
450.5028, 299.7324
450.9849, 359.7793
451.4670, 488.7715
451.9491, 611.7754
452.4312, 702.4785
452.9134, 761.6836
453.3955, 795.0371
453.8776, 798.4414
454.3597, 807.6426
454.8418, 858.3496
455.3239, 943.8496
455.8061, 1038.473
456.2882, 1147.844
456.7703, 1248.746
457.2524, 1300.988
457.7345, 1312.926
458.2166, 1320.455
458.6988, 1353.461
459.1809, 1387.508
459.6630, 1394.443
460.1451, 1371.350
460.6272, 1339.865
461.1093, 1301.670
461.5915, 1262.844
462.0736, 1231.801
462.5557, 1243.578
463.0378, 1234.416
463.5199, 1172.619
464.0020, 1063.529
464.4842, 949.3184
464.9663, 827.3574
465.4484, 711.3320
465.9305, 607.6270
466.4126, 511.7070
466.8947, 437.0020
467.3769, 397.7656
467.8590, 373.5664
468.3411, 329.0742
468.8232, 252.0059
469.3053, 178.9961
469.7874, 119.2031
470.2696, 72.10547
470.7517, 28.29102
471.2338, 13.11719
471.7159, 48.41602
472.1980, 80.70312
472.6801, 109.2871
473.1623, 97.83984
473.6444, 25.94141
474.1265, 58.32031
474.6086, 59.93945
475.0907, 8.996094
475.5728, 70.40234
476.0550, 77.32812
476.5371, 52.34766
477.0192, 27.25586
477.5013, 2.833984
477.9834, 14.53320
478.4655, 12.72852
478.9477, 3.197266
479.4298, 1.144531
479.9119, 18.06641
480.3940, 34.90234
480.8761, 31.85156
481.3582, 19.37109
481.8404, 27.64844
482.3225, 84.76953
482.8046, 149.8125
483.2867, 210.2715
483.7688, 273.1055
484.2509, 303.1758
484.7331, 273.5996
485.2152, 222.0059
485.6973, 181.3418
486.1794, 147.6016
486.6615, 134.1191
487.1436, 158.2695
487.6258, 204.8984
488.1079, 192.7715
488.5900, 99.93750
489.0721, 15.61133
489.5542, 6.751953
490.0363, 29.25195
490.5185, 42.13477
491.0006, 28.13281
491.4827, 9.458984
491.9648, 9.972656
492.4470, 26.44141
492.9291, 48.84766
493.4112, 82.47266
493.8933, 112.5391
494.3754, 107.2363
494.8575, 73.97266
495.3397, 50.21484
495.8218, 45.71094
496.3039, 62.67969
496.7860, 116.6914
497.2681, 227.9375
497.7502, 323.9473
498.2324, 365.6484
498.7145, 364.4512
499.1966, 343.4785
499.6787, 266.2324
500.1608, 213.1582
500.6429, 222.8203
501.1251, 290.7422
501.6072, 339.0508
502.0893, 349.2773
502.5714, 351.1543
503.0535, 360.5898
503.5356, 391.9746
504.0178, 393.0586
504.4999, 345.1230
504.9820, 283.8633
505.4641, 269.2773
505.9462, 312.2480
506.4283, 345.2109
506.9105, 348.0820
507.3926, 326.0781
507.8747, 294.2344
508.3568, 251.5957
508.8389, 215.6445
509.3210, 200.6211
509.8032, 201.9941
510.2853, 207.7539
510.7674, 216.6426
511.2495, 228.7715
511.7316, 252.3223
512.2137, 278.8945
512.6959, 290.9922
513.1780, 265.2969
513.6601, 236.3926
514.1422, 229.7070
514.6243, 242.0703
515.1064, 250.3691
515.5886, 248.3184
516.0707, 237.4824
516.5528, 217.5977
517.0349, 182.4688
517.5170, 151.1055
517.9991, 125.9922
518.4813, 105.4473
518.9634, 85.40234
519.4455, 48.69336
519.9276, 43.59570
520.4097, 92.07812
520.8918, 182.6875
521.3740, 244.9043
521.8561, 272.5820
522.3382, 292.0977
522.8203, 328.8477
523.3024, 379.5586
523.7845, 382.8594
524.2667, 323.3730
524.7488, 262.5918
525.2309, 289.0176
525.7130, 380.1953
526.1951, 457.2832
526.6772, 491.0527
527.1594, 500.3379
527.6415, 494.0176
528.1236, 477.6738
528.6057, 476.0898
529.0878, 503.5293
529.5699, 548.1934
530.0521, 612.6973
530.5342, 711.5781
531.0163, 771.5820
531.4984, 745.4238
531.9805, 681.8281
532.4626, 632.7422
532.9448, 611.2871
533.4269, 592.6836
533.9090, 579.3516
534.3911, 572.3223
534.8732, 569.4707
535.3553, 576.1602
535.8375, 576.0293
536.3196, 559.0430
536.8017, 523.8164
537.2838, 498.0957
537.7659, 486.2422
538.2480, 470.9297
538.7302, 424.4453
539.2123, 352.9961
539.6944, 305.6836
540.1765, 303.3574
540.6586, 310.7793
541.1407, 264.7539
541.6229, 182.2207
542.1050, 123.4902
542.5871, 147.4258
543.0692, 192.2559
543.5513, 204.8730
544.0334, 182.2344
544.5156, 144.5215
544.9977, 91.49414
545.4798, 32.76367
545.9619, 25.51172
546.4440, 108.0781
546.9261, 151.7344
547.4083, 113.9824
547.8904, 37.44727
548.3725, 6.146484
548.8546, 51.64844
549.3367, 90.43359
549.8188, 100.1016
550.3010, 82.78320
550.7831, 65.92383
551.2652, 46.10938
551.7473, 38.74023
552.2294, 71.08789
552.7115, 135.7285
553.1937, 147.5820
553.6758, 90.44922
554.1579, 20.05664
554.6400, 19.66992
555.1221, 63.76953
555.6042, 77.83594
556.0864, 6.808594
556.5685, 76.90820
557.0506, 92.39453
557.5327, 57.80664
558.0148, 40.05859
558.4969, 93.10352
558.9791, 157.1406
559.4612, 190.5605
559.9433, 179.8125
560.4254, 186.0781
560.9075, 233.8164
561.3896, 295.8594
561.8718, 347.9980
562.3539, 376.0039
562.8360, 418.8672
563.3181, 482.6035
563.8002, 560.7773
564.2823, 639.1641
564.7645, 715.7910
565.2466, 798.7168
565.7287, 894.1992
566.2108, 998.2832
566.6929, 1085.080
567.1750, 1152.875
567.6572, 1225.203
568.1393, 1321.031
568.6214, 1434.330
569.1035, 1548.957
569.5856, 1662.217
570.0677, 1782.084
570.5499, 1923.377
571.0320, 2075.447
571.5141, 2222.420
571.9962, 2334.312
572.4783, 2464.018
572.9604, 2646.352
573.4426, 2868.725
573.9247, 3071.021
574.4068, 3223.854
574.8889, 3371.004
575.3710, 3532.428
575.8531, 3714.551
576.3353, 3863.193
576.8174, 3960.621
577.2995, 4048.623
577.7816, 4178.293
578.2637, 4356.172
578.7458, 4494.928
579.2280, 4574.768
579.7101, 4623.260
580.1922, 4699.619
580.6743, 4794.066
581.1564, 4851.389
581.6385, 4830.693
582.1207, 4766.744
582.6028, 4709.855
583.0849, 4655.803
583.5670, 4568.410
584.0491, 4392.064
584.5313, 4195.834
585.0134, 4043.766
585.4955, 3973.955
585.9776, 3855.943
586.4597, 3609.105
586.9418, 3317.215
587.4240, 3078.078
587.9061, 2921.834
588.3882, 2773.963
588.8703, 2631.756
589.3524, 2491.412
589.8345, 2339.664
590.3167, 2172.639
590.7988, 2008.045
591.2809, 1859.436
591.7630, 1721.727
592.2451, 1570.643
592.7272, 1405.342
593.2094, 1246.693
593.6915, 1098.326
594.1736, 971.7207
594.6557, 900.2344
595.1378, 904.3359
595.6199, 904.0859
596.1021, 824.8652
596.5842, 707.6035
597.0663, 610.3145
597.5485, 556.9453
598.0306, 523.0840
598.5127, 514.3457
598.9948, 522.5703
599.4769, 512.4863
599.9590, 466.9219
600.4412, 420.9785
600.9233, 383.4980
601.4054, 353.7656
601.8875, 344.3535
602.3696, 363.2598
602.8517, 382.8828
603.3339, 376.5742
603.8160, 345.5117
604.2981, 312.0371
604.7802, 277.5020
605.2623, 258.1426
605.7444, 281.1914
606.2266, 332.3320
606.7087, 374.9336
607.1908, 389.3965
607.6729, 400.3965
608.1550, 435.2090
608.6371, 484.6113
609.1193, 520.2402
609.6014, 525.6816
610.0835, 515.8633
610.5656, 482.8691
611.0477, 419.9199
611.5298, 416.8672
612.0120, 526.5137
612.4941, 643.2383
612.9762, 694.8652
613.4583, 665.5000
613.9404, 633.3047
614.4225, 593.1152
614.9047, 558.2070
615.3868, 546.9629
615.8689, 558.7383
616.3510, 587.6289
616.8331, 639.7910
617.3152, 697.6738
617.7974, 733.0820
618.2795, 750.2012
618.7616, 767.5215
619.2437, 794.7207
619.7258, 826.1367
620.2079, 862.6914
620.6901, 903.8672
621.1722, 931.7363
621.6543, 931.6328
622.1364, 922.1328
