##NAMES=Hydroxyapophyllite-(K)
##RRUFFID=R110121
##IDEAL CHEMISTRY=KCa_4_Si_8_O_20_(OH)&#183;8H_2_O
##LOCALITY=Kandivali quarry, Malad (near Poona), Marashtra State, India
##OWNER=RRUFF
##SOURCE=Marcus Origlieri
##DESCRIPTION=White to colorless prismatic crystals on a basalt matrix
##STATUS=The identification of this mineral has been confirmed by single-crystal X-ray diffraction.
##URL=rruff.info/R110121
178.8666, 0.0000000E+00
179.3488, 0.6613310
179.8309, 0.2174380
180.3130, 0.3264160
180.7951, 0.1049800
181.2772, 0.7667240
181.7593, 1.574646
182.2415, 2.580841
182.7236, 3.934616
183.2057, 5.624451
183.6878, 7.349777
184.1699, 8.653671
184.6520, 9.298752
185.1342, 9.879761
185.6163, 10.70337
186.0984, 11.32346
186.5805, 11.11278
187.0626, 9.851791
187.5447, 8.170639
188.0269, 7.059402
188.5090, 6.488358
188.9911, 6.363068
189.4732, 6.712509
189.9553, 7.479340
190.4374, 8.645508
190.9196, 10.30649
191.4017, 12.14825
191.8838, 13.65813
192.3659, 14.78951
192.8480, 16.10162
193.3301, 17.82234
193.8123, 19.92925
194.2944, 22.39207
194.7765, 25.43777
195.2586, 28.60752
195.7407, 31.33234
196.2228, 33.59592
196.7050, 35.98698
197.1871, 39.06381
197.6692, 42.75988
198.1513, 46.18765
198.6334, 49.14133
199.1155, 51.76011
199.5977, 53.80037
200.0798, 55.34114
200.5619, 57.31905
201.0440, 61.19944
201.5261, 67.52388
202.0082, 72.24139
202.4904, 73.78335
202.9725, 74.30613
203.4546, 74.62460
203.9367, 74.91935
204.4188, 75.12260
204.9009, 75.10511
205.3831, 74.74065
205.8652, 74.55274
206.3473, 74.62087
206.8294, 74.80370
207.3115, 75.21220
207.7936, 75.78497
208.2758, 76.24686
208.7579, 76.08285
209.2400, 74.97984
209.7221, 73.79688
210.2042, 72.49629
210.6863, 71.49361
211.1685, 70.82865
211.6506, 70.87673
212.1327, 70.93288
212.6148, 70.24590
213.0969, 68.27153
213.5790, 66.97020
214.0612, 66.80106
214.5433, 66.81616
215.0254, 66.15813
215.5075, 64.33347
215.9896, 61.99694
216.4717, 60.14937
216.9539, 58.93897
217.4360, 58.15956
217.9181, 58.14081
218.4002, 58.42314
218.8823, 58.56497
219.3644, 58.48547
219.8466, 58.33894
220.3287, 58.29285
220.8108, 58.30789
221.2929, 58.68373
221.7750, 59.68793
222.2571, 61.01125
222.7393, 62.23108
223.2214, 63.23317
223.7035, 64.28420
224.1856, 65.90034
224.6677, 68.03471
225.1498, 69.77351
225.6320, 70.75332
226.1141, 71.22414
226.5962, 71.65044
227.0783, 72.17222
227.5604, 72.41753
228.0425, 71.92309
228.5247, 70.82086
229.0068, 69.44142
229.4889, 68.12684
229.9710, 66.60286
230.4531, 64.12713
230.9352, 60.32128
231.4174, 56.21992
231.8995, 52.69947
232.3816, 49.56837
232.8637, 46.30454
233.3458, 42.57552
233.8279, 38.51100
234.3101, 34.37341
234.7922, 29.91815
235.2743, 25.92396
235.7564, 23.07548
236.2385, 20.94535
236.7206, 18.83074
237.2028, 15.78932
237.6849, 12.15223
238.1670, 9.298615
238.6491, 7.546661
239.1312, 6.215675
239.6133, 5.158020
240.0955, 4.236549
240.5776, 3.169250
241.0597, 1.682304
241.5418, 5.0266001E-02
242.0239, 1.090866
242.5060, 0.8127400
242.9882, 0.6816860
243.4703, 1.319347
243.9524, 2.329510
244.4345, 3.113194
244.9166, 3.295490
245.3987, 3.024178
245.8809, 2.995087
246.3630, 3.505581
246.8451, 3.879162
247.3272, 4.001278
247.8093, 3.911114
248.2914, 3.612442
248.7736, 3.087742
249.2557, 2.435398
249.7378, 2.072021
250.2199, 2.485569
250.7020, 2.576698
251.1841, 2.063622
251.6663, 1.205887
252.1484, 0.3071020
252.6305, 0.4890170
253.1126, 1.231041
253.5947, 2.086876
254.0768, 3.164413
254.5590, 4.231476
255.0411, 5.363735
255.5232, 6.445213
256.0053, 7.291126
256.4874, 7.823956
256.9695, 8.229942
257.4517, 8.958256
257.9338, 10.44893
258.4159, 11.75838
258.8980, 12.71214
259.3801, 13.55612
259.8622, 14.55871
260.3444, 15.81123
260.8265, 17.21312
261.3086, 18.58142
261.7907, 20.01519
262.2728, 21.24313
262.7549, 22.07060
263.2371, 22.78801
263.7192, 23.67461
264.2013, 24.80722
264.6834, 26.08986
265.1655, 27.41637
265.6476, 28.92072
266.1298, 30.07813
266.6119, 30.74522
267.0940, 31.13894
267.5761, 31.49072
268.0582, 31.84006
268.5403, 31.99978
269.0225, 31.72869
269.5046, 30.91819
269.9867, 30.05744
270.4688, 28.99924
270.9509, 27.99517
271.4330, 27.39380
271.9152, 27.20723
272.3973, 26.91516
272.8794, 25.91795
273.3615, 24.15579
273.8436, 22.92434
274.3257, 22.65321
274.8079, 22.62416
275.2900, 22.25230
275.7721, 21.52210
276.2542, 20.81999
276.7363, 20.43882
277.2184, 20.36532
277.7006, 20.25292
278.1827, 19.99608
278.6648, 19.78596
279.1469, 19.73685
279.6290, 19.84937
280.1111, 20.12770
280.5933, 20.65989
281.0754, 21.33729
281.5575, 21.78639
282.0396, 21.81649
282.5217, 21.85206
283.0038, 22.12576
283.4860, 22.62231
283.9681, 23.27271
284.4502, 24.08436
284.9323, 25.00946
285.4144, 25.93651
285.8965, 26.87159
286.3787, 27.79379
286.8608, 28.64626
287.3429, 29.46348
287.8250, 30.38482
288.3071, 31.46262
288.7892, 32.66091
289.2714, 33.89519
289.7535, 35.14095
290.2356, 36.53595
290.7177, 38.11152
291.1998, 39.88334
291.6819, 41.96326
292.1641, 44.48389
292.6462, 47.11636
293.1283, 49.58851
293.6104, 51.90458
294.0925, 53.94896
294.5746, 55.54269
295.0568, 56.83274
295.5389, 58.14086
296.0210, 59.54567
296.5031, 60.84921
296.9852, 61.81982
297.4673, 62.55529
297.9495, 63.30230
298.4316, 64.19859
298.9137, 65.11273
299.3958, 65.84797
299.8779, 66.39948
300.3600, 66.82335
300.8422, 67.08719
301.3243, 67.14495
301.8064, 66.89703
302.2885, 65.96861
302.7706, 65.14916
303.2527, 65.54848
303.7349, 67.25134
304.2170, 68.77201
304.6991, 69.13094
305.1812, 69.05318
305.6633, 69.56729
306.1454, 70.99300
306.6276, 72.57059
307.1097, 73.50346
307.5918, 73.85088
308.0739, 74.59609
308.5560, 76.28735
309.0381, 78.35259
309.5203, 80.18322
310.0024, 81.79325
310.4845, 83.15761
310.9666, 84.10543
311.4487, 84.70921
311.9308, 85.30647
312.4130, 85.82587
312.8951, 86.50142
313.3772, 87.73698
313.8593, 89.43379
314.3414, 90.75849
314.8235, 91.03522
315.3057, 90.65836
315.7878, 90.61821
316.2699, 91.01890
316.7520, 91.65376
317.2341, 92.40435
317.7162, 93.26454
318.1984, 94.26473
318.6805, 95.72121
319.1626, 97.19146
319.6447, 97.89698
320.1268, 97.72218
320.6089, 97.34814
321.0911, 97.16256
321.5732, 97.00828
322.0553, 96.67188
322.5374, 96.14487
323.0195, 95.36756
323.5016, 94.22576
323.9838, 92.71124
324.4659, 91.09782
324.9480, 89.50019
325.4301, 87.83863
325.9122, 86.03201
326.3943, 84.04224
326.8765, 82.00518
327.3586, 79.88624
327.8407, 77.74335
328.3228, 75.98525
328.8049, 74.85447
329.2870, 73.94312
329.7692, 72.89616
330.2513, 71.71901
330.7334, 70.36588
331.2155, 68.50967
331.6976, 66.48845
332.1797, 65.12040
332.6619, 64.56066
333.1440, 64.46321
333.6261, 64.86386
334.1082, 65.53593
334.5903, 65.91681
335.0724, 65.65739
335.5546, 65.10586
336.0367, 64.62569
336.5188, 64.20527
337.0009, 64.03568
337.4830, 64.45026
337.9651, 65.12806
338.4473, 65.50486
338.9294, 65.62513
339.4115, 65.26955
339.8936, 64.09053
340.3757, 62.17517
340.8578, 60.23583
341.3400, 58.61909
341.8221, 56.98746
342.3042, 54.78386
342.7863, 51.89741
343.2684, 49.05605
343.7505, 46.58968
344.2327, 44.42963
344.7148, 42.51006
345.1969, 40.94315
345.6790, 39.27340
346.1611, 36.71927
346.6432, 33.43957
347.1254, 30.50608
347.6075, 28.28036
348.0896, 26.51195
348.5717, 25.04934
349.0538, 23.88700
349.5359, 22.65493
350.0181, 20.87305
350.5002, 18.78164
350.9823, 17.39756
351.4644, 17.48111
351.9465, 17.68990
352.4286, 17.14685
352.9108, 15.94455
353.3929, 14.44208
353.8750, 12.64304
354.3571, 10.83143
354.8392, 9.745598
355.3214, 9.674011
355.8035, 9.555298
356.2856, 8.995056
356.7677, 8.138443
357.2498, 7.193150
357.7319, 6.192150
358.2141, 5.258392
358.6962, 4.634113
359.1783, 4.419453
359.6604, 3.875385
360.1425, 2.578278
360.6246, 1.122829
361.1068, 2.9620999E-02
361.5889, 0.6514130
362.0710, 1.058426
362.5531, 1.275059
363.0352, 1.297451
363.5173, 1.296921
363.9995, 1.142937
364.4816, 1.094887
364.9637, 1.429077
365.4458, 1.979424
365.9279, 2.294487
366.4100, 2.111763
366.8922, 1.601879
367.3743, 1.323769
367.8564, 1.460003
368.3385, 1.552074
368.8206, 1.612530
369.3027, 1.569584
369.7849, 1.293842
370.2670, 0.7607650
370.7491, 0.1221200
371.2312, 0.4386750
371.7133, 0.9803160
372.1954, 1.193932
372.6776, 0.7070080
373.1597, 0.2279470
373.6418, 0.1728400
374.1239, 0.5414580
374.6060, 1.155251
375.0881, 1.927845
375.5703, 2.841064
376.0524, 3.379513
376.5345, 3.095291
377.0166, 2.961575
377.4987, 3.263508
377.9808, 3.836025
378.4630, 4.399513
378.9451, 4.824120
379.4272, 5.242107
379.9093, 5.984241
380.3914, 7.335960
380.8735, 8.554131
381.3557, 9.430874
381.8378, 10.30288
382.3199, 11.35635
382.8020, 12.65709
383.2841, 14.25259
383.7662, 16.29604
384.2484, 18.93452
384.7305, 21.03927
385.2126, 22.08985
385.6947, 23.09241
386.1768, 24.24175
386.6589, 25.59123
387.1411, 27.16817
387.6232, 28.98911
388.1053, 31.06468
388.5874, 33.45738
389.0695, 36.39426
389.5516, 39.21537
390.0338, 41.63295
390.5159, 44.00858
390.9980, 46.71747
391.4801, 49.86187
391.9622, 53.05926
392.4443, 55.81607
392.9265, 58.06557
393.4086, 60.36285
393.8907, 62.86680
394.3728, 65.35475
394.8549, 67.76695
395.3370, 70.05349
395.8192, 72.06831
396.3013, 73.61172
396.7834, 74.81666
397.2655, 76.16383
397.7476, 77.81998
398.2297, 79.17136
398.7119, 79.79475
399.1940, 79.92939
399.6761, 79.86358
400.1582, 79.74834
400.6403, 79.29894
401.1224, 78.13878
401.6046, 76.27281
402.0867, 74.18491
402.5688, 71.89285
403.0509, 69.67206
403.5330, 67.86214
404.0151, 66.47202
404.4973, 65.01276
404.9794, 63.21481
405.4615, 61.22483
405.9436, 59.28729
406.4257, 57.44413
406.9078, 55.62111
407.3900, 53.71159
407.8721, 51.77800
408.3542, 50.07843
408.8363, 48.72051
409.3184, 47.52753
409.8005, 46.37181
410.2827, 45.28833
410.7648, 44.43322
411.2469, 43.89916
411.7290, 43.58199
412.2111, 43.21310
412.6932, 42.56169
413.1754, 42.40976
413.6575, 43.27192
414.1396, 44.49282
414.6217, 45.35274
415.1038, 45.74397
415.5859, 46.07140
416.0681, 46.73183
416.5502, 47.75591
417.0323, 48.83561
417.5144, 49.79840
417.9965, 50.97165
418.4786, 52.46783
418.9608, 54.26493
419.4429, 56.31245
419.9250, 58.60180
420.4071, 61.12582
420.8892, 63.84959
421.3713, 66.75316
421.8535, 69.91594
422.3356, 73.52229
422.8177, 77.22079
423.2998, 80.55945
423.7819, 83.61800
424.2640, 86.97317
424.7462, 91.21913
425.2283, 96.39594
425.7104, 101.8865
426.1925, 108.0621
426.6746, 114.1709
427.1567, 119.9266
427.6389, 125.5186
428.1210, 131.2946
428.6031, 137.4968
429.0852, 143.6696
429.5673, 148.9398
430.0494, 153.3024
430.5316, 156.8014
431.0137, 159.8772
431.4958, 161.6858
431.9779, 161.6290
432.4600, 159.6591
432.9421, 155.9806
433.4243, 150.3323
433.9064, 143.0078
434.3885, 135.2195
434.8706, 126.9168
435.3527, 118.3317
435.8348, 109.0556
436.3170, 99.65599
436.7991, 91.09586
437.2812, 83.94801
437.7633, 77.28685
438.2454, 70.14234
438.7275, 62.61714
439.2097, 55.56970
439.6918, 49.22659
440.1739, 43.65067
440.6560, 39.11237
441.1381, 35.60565
441.6202, 32.30193
442.1024, 29.05318
442.5845, 25.85284
443.0666, 22.60802
443.5487, 19.33617
444.0308, 16.41144
444.5129, 14.16664
444.9951, 12.54614
445.4772, 10.86545
445.9593, 9.139519
446.4414, 7.357445
446.9235, 5.342537
447.4056, 3.319450
447.8878, 1.621025
448.3699, 0.3592610
448.8520, 0.5950780
449.3341, 1.439278
449.8162, 2.183914
450.2983, 2.761330
450.7805, 3.017593
451.2626, 3.265114
451.7447, 3.792427
452.2268, 4.467354
452.7089, 4.904968
453.1910, 4.823822
453.6732, 4.348976
454.1553, 4.010536
454.6374, 3.906647
455.1195, 3.775940
455.6016, 3.682686
456.0837, 3.488174
456.5659, 3.021004
457.0480, 2.269875
457.5301, 1.471268
458.0122, 0.9458770
458.4943, 0.6800770
458.9764, 9.8655999E-02
459.4586, 1.005142
459.9407, 2.148811
460.4228, 2.992371
460.9049, 3.708176
461.3870, 4.627159
461.8691, 5.947189
462.3513, 7.377831
462.8334, 8.485641
463.3155, 9.289680
463.7976, 10.29958
464.2797, 11.73695
464.7618, 13.37621
465.2440, 14.91083
465.7261, 16.33793
466.2082, 17.86656
466.6903, 19.31793
467.1724, 21.04784
467.6545, 23.71683
468.1367, 27.30029
468.6188, 30.82174
469.1009, 33.53219
469.5830, 35.64726
470.0651, 38.35138
470.5472, 41.67294
471.0294, 45.41926
471.5115, 49.53946
471.9936, 54.04906
472.4757, 58.92487
472.9578, 64.17012
473.4399, 70.00439
473.9221, 76.74703
474.4042, 84.55004
474.8863, 92.38649
475.3684, 100.1666
475.8505, 108.1364
476.3326, 116.0129
476.8148, 124.1964
477.2969, 133.3380
477.7790, 143.6964
478.2611, 155.0344
478.7432, 166.8194
479.2253, 179.1584
479.7075, 191.5105
480.1896, 204.4799
480.6717, 216.8415
481.1538, 228.2710
481.6359, 238.5186
482.1180, 247.1144
482.6002, 253.9197
483.0823, 258.7774
483.5644, 261.3520
484.0465, 261.6602
484.5286, 259.5110
485.0107, 254.3221
485.4929, 246.7264
485.9750, 237.2243
486.4571, 225.7583
486.9392, 213.1715
487.4213, 199.4074
487.9034, 184.9509
488.3856, 170.9561
488.8677, 157.5073
489.3498, 144.4661
489.8319, 131.6231
490.3140, 119.0771
490.7961, 107.6801
491.2783, 97.53218
491.7604, 88.31016
492.2425, 79.86163
492.7246, 72.18908
493.2067, 65.31387
493.6888, 59.26419
494.1710, 53.87547
494.6531, 49.00439
495.1352, 44.71869
495.6173, 40.80463
496.0994, 37.25114
496.5815, 34.02042
497.0637, 31.18639
497.5458, 28.66678
498.0279, 26.31734
498.5100, 24.05845
498.9921, 21.89950
499.4742, 19.81580
499.9564, 17.77975
500.4385, 15.90137
500.9206, 14.03329
501.4027, 12.44169
501.8848, 11.48850
502.3669, 11.06054
502.8491, 10.57290
503.3312, 9.511604
503.8133, 8.125351
504.2954, 7.171577
504.7775, 6.778381
505.2596, 6.213676
505.7418, 4.897057
506.2239, 3.283463
506.7060, 2.039520
507.1881, 1.264801
507.6702, 0.6241150
508.1523, 6.8320997E-02
508.6345, 0.7004170
509.1166, 1.084335
509.5987, 1.208412
510.0808, 1.261543
510.5629, 1.362000
511.0450, 1.477272
511.5272, 1.539322
512.0093, 1.592659
512.4914, 1.573349
512.9735, 1.528175
513.4556, 1.368584
513.9377, 0.9142380
514.4199, 0.1274030
514.9020, 0.8013000
515.3841, 1.545616
515.8662, 1.974442
516.3483, 2.961494
516.8304, 5.128838
517.3126, 7.260628
517.7947, 8.795280
518.2768, 10.07738
518.7589, 11.71307
519.2410, 13.95592
519.7231, 16.41338
520.2053, 18.47433
520.6874, 20.08963
521.1695, 21.94172
521.6516, 23.97609
522.1337, 26.47972
522.6158, 29.86327
523.0980, 33.83652
523.5801, 37.55872
524.0622, 40.40314
524.5443, 43.18170
525.0264, 46.86952
525.5085, 51.33011
525.9907, 55.50581
526.4728, 58.93745
526.9549, 62.19810
527.4370, 66.20487
527.9191, 71.13423
528.4012, 75.86092
528.8834, 80.00162
529.3655, 84.14436
529.8476, 88.76331
530.3297, 93.74974
530.8118, 98.69092
531.2939, 103.3762
531.7761, 107.8387
532.2582, 112.1211
532.7403, 115.8452
533.2224, 120.0947
533.7045, 125.5212
534.1866, 130.8312
534.6688, 135.3844
535.1509, 139.1547
535.6330, 142.3036
536.1151, 144.8228
536.5972, 146.9425
537.0793, 149.4373
537.5615, 152.5235
538.0436, 155.0531
538.5257, 156.6376
539.0078, 157.5093
539.4899, 157.6798
539.9720, 157.2057
540.4542, 156.7999
540.9363, 157.0647
541.4184, 157.4780
541.9005, 157.2579
542.3826, 156.3982
542.8647, 155.3428
543.3469, 154.2823
543.8290, 153.2073
544.3111, 152.0775
544.7932, 150.8527
545.2753, 149.6832
545.7574, 148.5773
546.2396, 147.5341
546.7217, 146.5038
547.2038, 145.5197
547.6859, 144.7557
548.1680, 144.3625
548.6501, 144.2202
549.1323, 143.7787
549.6144, 142.7824
550.0965, 141.9318
550.5786, 140.9679
551.0607, 140.4027
551.5428, 140.7396
552.0250, 141.9088
552.5071, 143.3430
552.9892, 144.7368
553.4713, 146.0575
553.9534, 147.1847
554.4355, 148.0683
554.9177, 148.9814
555.3998, 149.8031
555.8819, 150.9036
556.3640, 152.8199
556.8461, 155.6552
557.3282, 158.5196
557.8104, 160.7880
558.2925, 163.0823
558.7746, 166.2303
559.2567, 170.2199
559.7388, 174.3263
560.2209, 178.1418
560.7031, 181.7761
561.1852, 185.5867
561.6673, 189.8570
562.1494, 193.9639
562.6315, 197.2088
563.1136, 200.8283
563.5958, 205.7791
564.0779, 212.0153
564.5600, 218.9029
565.0421, 226.1198
565.5242, 233.4781
566.0063, 240.1606
566.4885, 245.5763
566.9706, 251.8090
567.4527, 259.7706
567.9348, 268.4610
568.4169, 277.3553
568.8990, 286.3377
569.3812, 295.4116
569.8633, 304.1610
570.3454, 313.1055
570.8275, 323.3388
571.3096, 334.7696
571.7917, 345.7690
572.2739, 355.6089
572.7560, 364.9122
573.2381, 374.8138
573.7202, 385.4031
574.2023, 396.3323
574.6844, 407.8741
575.1666, 419.5189
575.6487, 431.4823
576.1308, 443.2262
576.6129, 453.4345
577.0950, 461.4394
577.5771, 468.1543
578.0593, 475.7448
578.5414, 485.0251
579.0235, 492.8503
579.5056, 498.5626
579.9877, 503.2680
580.4698, 507.8784
580.9520, 511.7965
581.4341, 513.6805
581.9162, 512.8323
582.3983, 509.9063
582.8804, 505.6559
583.3625, 500.0689
583.8447, 493.2226
584.3268, 485.2156
584.8089, 475.8135
585.2910, 464.5508
585.7731, 451.5548
586.2552, 438.1691
586.7374, 424.7491
587.2195, 410.7189
587.7016, 395.7660
588.1837, 380.0605
588.6658, 363.7997
589.1479, 347.0684
589.6301, 330.0656
590.1122, 312.7366
590.5943, 294.8746
591.0764, 278.7899
591.5585, 265.6508
592.0406, 252.9564
592.5228, 240.4121
593.0049, 227.8387
593.4870, 214.8509
593.9691, 201.3339
594.4512, 188.5124
594.9333, 177.7079
595.4155, 168.5403
595.8976, 159.4802
596.3797, 150.4436
596.8618, 141.5679
597.3439, 132.9147
597.8260, 124.5472
598.3082, 116.5804
598.7903, 108.9646
599.2724, 101.8812
599.7545, 95.37017
600.2366, 89.42522
600.7188, 84.17091
601.2009, 79.54366
601.6830, 75.37276
602.1651, 71.58723
602.6472, 67.99146
603.1293, 63.77837
603.6115, 58.07376
604.0936, 53.38431
604.5757, 50.42791
605.0578, 47.94797
605.5399, 45.23679
606.0220, 42.33036
606.5042, 39.56084
606.9863, 37.16194
607.4684, 34.95574
607.9505, 32.59742
608.4326, 30.09109
608.9147, 27.80303
609.3969, 25.87888
609.8790, 24.10554
610.3611, 22.17997
610.8432, 20.12635
611.3253, 18.47186
611.8074, 17.66137
612.2896, 16.85548
612.7717, 15.64627
613.2538, 14.13282
613.7359, 12.38425
614.2180, 10.45398
614.7001, 8.677322
615.1823, 7.477554
615.6644, 6.887901
616.1465, 6.162468
616.6286, 5.010071
617.1107, 4.141098
617.5928, 3.999527
618.0750, 4.063713
618.5571, 3.782837
619.0392, 3.059875
619.5213, 2.227112
620.0034, 1.481598
620.4855, 0.8206630
620.9677, 0.2473600
621.4498, 0.2337880
621.9319, 0.7196660
622.4140, 1.321236
622.8961, 1.887283
623.3782, 2.029778
623.8604, 1.558022
624.3425, 1.323151
624.8246, 1.616997
625.3067, 1.994324
625.7888, 2.261345
626.2709, 2.364220
626.7531, 2.180107
627.2352, 1.630135
627.7173, 1.001366
628.1994, 0.8552700
628.6815, 1.282768
629.1636, 1.699150
629.6458, 2.109085
630.1279, 2.459587
630.6100, 2.776718
631.0921, 3.031414
631.5742, 3.164783
632.0563, 3.182529
632.5385, 2.927109
633.0206, 1.991314
633.5027, 0.8297500
633.9848, 0.4284060
634.4669, 0.8965380
634.9490, 1.358109
635.4312, 1.150932
635.9133, 0.4199750
636.3954, 7.1479999E-02
636.8775, 5.6039998E-03
637.3596, 6.7424998E-02
637.8417, 0.3232080
638.3239, 0.6798900
638.8060, 1.142933
639.2881, 1.670509
639.7702, 2.137356
640.2523, 2.439274
640.7344, 2.699909
641.2166, 3.229748
641.6987, 4.043930
642.1808, 4.606258
642.6629, 4.730938
643.1450, 4.724041
643.6271, 4.750874
644.1093, 4.865211
644.5914, 5.257042
645.0735, 6.073689
645.5556, 6.932056
646.0377, 7.728821
646.5198, 8.485493
647.0020, 9.244362
647.4841, 9.999836
647.9662, 10.65173
648.4483, 11.08485
