##NAMES=Lavinskyite
##RRUFFID=R120057
##IDEAL CHEMISTRY=K(LiCu)Cu_6_(Si_4_O_11_)_2_(OH)_4_
##LOCALITY=Wessels mine, Kalahari Manganese Fields, Northern Cape Province, South Africa
##OWNER=RRUFF
##SOURCE=William W. Pinch, Robert Lavinsky, and Marcus Origlieri
##DESCRIPTION=Light blue plates, associated with R120019 wesselsite, and R120077 scottyite. This is the type sample.
##STATUS=The identification of this mineral is confirmed by single-crystal X-ray diffraction and chemical analysis.
##URL=rruff.info/R120057
##MEASURED CHEMISTRY=(K_0.99_Ba_0.01_)_Σ=1.00_(Li_1.04_Cu_0.50_Mg_0.43_Na_0.10_Mn_0.01_)_Σ=2.08_Cu_6.00_Si_7.99_O_22_(OH)_4.00_  ; (Lavinskyite is the darkest material in the image)
226.9312, 0.0000000E+00
227.4133, 0.8554690
227.8954, 1.984863
228.3775, 4.215820
228.8597, 8.426758
229.3418, 16.43945
229.8239, 29.10352
230.3060, 41.01367
230.7881, 50.00391
231.2702, 57.21631
231.7524, 68.74707
232.2345, 85.00781
232.7166, 104.1714
233.1987, 125.4229
233.6808, 150.3105
234.1629, 173.1685
234.6451, 193.6597
235.1272, 211.9604
235.6093, 229.3433
236.0914, 248.3057
236.5735, 262.6953
237.0556, 268.4600
237.5378, 261.5903
238.0199, 254.8081
238.5020, 248.8911
238.9841, 243.5693
239.4662, 238.1475
239.9483, 233.0122
240.4305, 227.9214
240.9126, 222.3818
241.3947, 217.6846
241.8768, 211.1162
242.3589, 201.2568
242.8410, 189.5840
243.3232, 181.4312
243.8053, 177.6553
244.2874, 175.2817
244.7695, 173.4775
245.2516, 174.1973
245.7337, 170.5518
246.2159, 158.2808
246.6980, 141.1836
247.1801, 134.8486
247.6622, 144.5933
248.1443, 155.2603
248.6264, 160.0669
249.1086, 157.0649
249.5907, 151.9805
250.0728, 143.7642
250.5549, 134.4136
251.0370, 129.5547
251.5191, 133.6831
252.0013, 134.5068
252.4834, 125.3105
252.9655, 97.82520
253.4476, 80.44873
253.9297, 76.65967
254.4118, 82.02197
254.8940, 87.83350
255.3761, 92.91895
255.8582, 98.37451
256.3403, 107.3145
256.8224, 115.0894
257.3046, 122.7607
257.7867, 130.5342
258.2688, 138.5088
258.7509, 145.6538
259.2330, 154.0220
259.7151, 163.1553
260.1973, 170.2798
260.6794, 173.9678
261.1615, 177.8579
261.6436, 183.1372
262.1257, 188.3506
262.6078, 192.1445
263.0900, 196.0493
263.5721, 196.6514
264.0542, 191.2944
264.5363, 178.9536
265.0184, 172.1860
265.5005, 174.0781
265.9827, 177.8296
266.4648, 172.6079
266.9469, 154.6987
267.4290, 140.0952
267.9111, 134.3003
268.3932, 137.8848
268.8754, 139.7700
269.3575, 138.9116
269.8396, 137.7686
270.3217, 140.1260
270.8038, 147.1733
271.2859, 152.5088
271.7681, 154.2939
272.2502, 152.5332
272.7323, 148.2168
273.2144, 140.3364
273.6965, 132.0024
274.1786, 126.3491
274.6608, 123.4165
275.1429, 123.1753
275.6250, 127.4688
276.1071, 134.9976
276.5892, 134.3843
277.0714, 123.4297
277.5535, 110.6812
278.0356, 104.4551
278.5177, 105.3394
278.9998, 106.4614
279.4819, 106.7290
279.9641, 106.0762
280.4462, 105.4312
280.9283, 105.7969
281.4104, 101.7344
281.8925, 85.38867
282.3746, 56.52588
282.8568, 34.91455
283.3389, 26.06494
283.8210, 24.88281
284.3031, 16.33252
284.7852, 2.990723
285.2673, 10.24170
285.7495, 17.60889
286.2316, 19.41699
286.7137, 19.86475
287.1958, 19.05371
287.6779, 17.66357
288.1600, 17.37695
288.6422, 18.24219
289.1243, 18.77295
289.6064, 17.22412
290.0885, 14.31104
290.5706, 14.09766
291.0527, 17.88232
291.5349, 22.52637
292.0170, 23.46191
292.4991, 20.83301
292.9812, 15.63574
293.4633, 6.136719
293.9454, 5.666504
294.4276, 12.89160
294.9097, 14.60938
295.3918, 14.11621
295.8739, 15.20166
296.3560, 17.61523
296.8381, 20.11084
297.3203, 22.71582
297.8024, 24.91846
298.2845, 24.56250
298.7666, 21.23193
299.2487, 19.30420
299.7308, 23.49121
300.2130, 32.69775
300.6951, 43.71875
301.1772, 57.22559
301.6593, 70.79834
302.1414, 80.12891
302.6235, 85.22754
303.1057, 90.60693
303.5878, 99.54443
304.0699, 111.4170
304.5520, 125.2217
305.0341, 143.5811
305.5162, 161.1133
305.9984, 171.4590
306.4805, 175.4102
306.9626, 178.4155
307.4447, 181.9175
307.9268, 187.2764
308.4089, 196.5049
308.8911, 212.8594
309.3732, 229.0811
309.8553, 239.9062
310.3374, 245.8994
310.8195, 249.0854
311.3016, 245.7192
311.7838, 242.3164
312.2659, 244.9976
312.7480, 256.1016
313.2301, 270.1431
313.7122, 287.2178
314.1943, 304.8682
314.6765, 317.6650
315.1586, 321.1987
315.6407, 320.5298
316.1228, 318.4497
316.6049, 315.5220
317.0870, 312.4438
317.5692, 308.3403
318.0513, 304.6958
318.5334, 303.5513
319.0155, 306.6938
319.4976, 311.8472
319.9797, 317.9707
320.4619, 324.9458
320.9440, 333.4380
321.4261, 346.7207
321.9082, 360.1104
322.3903, 369.0903
322.8724, 371.3159
323.3546, 370.4189
323.8367, 365.0615
324.3188, 355.5435
324.8009, 349.9028
325.2830, 351.9077
325.7651, 356.8081
326.2473, 361.5825
326.7294, 364.9614
327.2115, 369.5400
327.6936, 377.5010
328.1757, 387.6768
328.6578, 394.2852
329.1400, 394.4863
329.6221, 393.6445
330.1042, 393.9834
330.5863, 395.6357
331.0684, 398.2842
331.5505, 401.2510
332.0327, 405.2002
332.5148, 411.7256
332.9969, 422.1587
333.4790, 433.1406
333.9611, 443.3735
334.4432, 451.9604
334.9254, 462.8472
335.4075, 478.3184
335.8896, 493.6895
336.3717, 501.3379
336.8538, 496.7842
337.3359, 495.0356
337.8180, 501.2461
338.3001, 515.2173
338.7823, 525.8633
339.2644, 532.9873
339.7465, 536.9839
340.2286, 538.1538
340.7107, 536.5986
341.1928, 531.8223
341.6750, 523.1909
342.1571, 511.5469
342.6392, 500.8228
343.1213, 491.0410
343.6034, 480.8828
344.0855, 469.6704
344.5677, 457.5396
345.0498, 443.7559
345.5319, 427.1621
346.0140, 410.7588
346.4961, 403.7158
346.9782, 405.5073
347.4604, 401.8071
347.9425, 378.6494
348.4246, 342.3042
348.9067, 317.8291
349.3888, 307.9658
349.8709, 302.8198
350.3531, 292.5361
350.8352, 277.5044
351.3173, 258.9165
351.7994, 231.0859
352.2815, 201.5859
352.7636, 184.9385
353.2458, 181.0005
353.7279, 179.6914
354.2100, 174.4736
354.6921, 165.7153
355.1742, 153.8667
355.6563, 136.5718
356.1385, 118.6245
356.6206, 104.6001
357.1027, 93.96338
357.5848, 84.34473
358.0669, 75.54590
358.5490, 66.49658
359.0312, 55.77295
359.5133, 41.68750
359.9954, 28.90381
360.4775, 20.70850
360.9596, 15.81787
361.4417, 11.50293
361.9239, 5.883789
362.4060, 1.271973
362.8881, 0.3046880
363.3702, 4.689453
363.8523, 4.900879
364.3344, 6.793457
364.8166, 22.69873
365.2987, 34.08350
365.7808, 35.26416
366.2629, 35.14307
366.7450, 35.55664
367.2271, 36.58887
367.7093, 38.29736
368.1914, 42.10400
368.6735, 45.78271
369.1556, 47.90381
369.6377, 48.71289
370.1198, 47.74072
370.6020, 44.71191
371.0841, 39.92285
371.5662, 34.25049
372.0483, 27.69531
372.5304, 20.49414
373.0125, 11.88037
373.4947, 0.8964840
373.9768, 6.116211
374.4589, 0.1640630
374.9410, 10.74512
375.4231, 14.00488
375.9052, 8.222168
376.3874, 0.3583980
376.8695, 10.32275
377.3516, 21.91553
377.8337, 34.04736
378.3158, 47.33252
378.7979, 60.45410
379.2801, 71.71729
379.7622, 81.22070
380.2443, 90.67285
380.7264, 100.4102
381.2085, 110.5088
381.6906, 120.8877
382.1728, 131.4038
382.6549, 143.5571
383.1370, 159.7163
383.6191, 178.5112
384.1012, 192.9839
384.5833, 201.3643
385.0655, 209.2236
385.5476, 226.5830
386.0297, 250.5391
386.5118, 269.5645
386.9939, 270.6025
387.4760, 266.6914
387.9582, 279.6211
388.4403, 310.1504
388.9224, 341.1733
389.4045, 357.4678
389.8866, 365.7310
390.3687, 375.6978
390.8509, 393.9800
391.3330, 411.1816
391.8151, 417.8242
392.2972, 416.8613
392.7793, 420.3184
393.2614, 438.1660
393.7436, 460.0347
394.2257, 479.1924
394.7078, 493.9502
395.1899, 506.5732
395.6720, 516.7817
396.1541, 525.4585
396.6363, 534.0571
397.1184, 540.8940
397.6005, 549.5264
398.0826, 562.7124
398.5647, 581.5840
399.0468, 596.0103
399.5290, 602.3638
400.0111, 605.3589
400.4932, 608.6807
400.9753, 609.5044
401.4574, 614.7690
401.9395, 627.7559
402.4217, 646.2476
402.9038, 658.6855
403.3859, 660.2437
403.8680, 662.8984
404.3501, 673.0181
404.8322, 692.9468
405.3144, 712.0483
405.7965, 730.6108
406.2786, 747.6851
406.7607, 759.7930
407.2428, 765.1182
407.7249, 775.8223
408.2071, 798.7632
408.6892, 831.0654
409.1713, 852.2842
409.6534, 860.9824
410.1355, 867.2075
410.6176, 878.5508
411.0998, 894.9692
411.5819, 916.8130
412.0640, 945.7129
412.5461, 977.4185
413.0282, 1007.051
413.5103, 1034.280
413.9925, 1058.061
414.4746, 1076.894
414.9567, 1092.479
415.4388, 1106.350
415.9209, 1118.496
416.4030, 1131.585
416.8852, 1149.953
417.3673, 1170.640
417.8494, 1188.875
418.3315, 1200.667
418.8136, 1211.505
419.2957, 1226.645
419.7779, 1244.986
420.2600, 1259.908
420.7421, 1264.534
421.2242, 1267.408
421.7063, 1274.584
422.1884, 1290.007
422.6706, 1303.265
423.1527, 1311.795
423.6348, 1317.392
424.1169, 1322.575
424.5990, 1324.169
425.0811, 1328.698
425.5633, 1338.461
426.0454, 1353.813
426.5275, 1370.234
427.0096, 1388.250
427.4917, 1407.125
427.9738, 1426.439
428.4560, 1446.461
428.9381, 1466.092
429.4202, 1483.883
429.9023, 1501.124
430.3844, 1524.882
430.8665, 1557.917
431.3487, 1589.251
431.8308, 1611.348
432.3129, 1623.459
432.7950, 1640.096
433.2771, 1662.560
433.7592, 1687.461
434.2414, 1711.326
434.7235, 1733.933
435.2056, 1753.917
435.6877, 1769.288
436.1698, 1782.908
436.6519, 1801.559
437.1341, 1825.105
437.6162, 1849.756
438.0983, 1876.114
438.5804, 1901.229
439.0625, 1919.300
439.5446, 1928.293
440.0268, 1933.900
440.5089, 1938.859
440.9910, 1944.246
441.4731, 1952.133
441.9552, 1968.072
442.4373, 1983.149
442.9195, 1993.020
443.4016, 1997.341
443.8837, 1994.674
444.3658, 1979.478
444.8479, 1959.573
445.3300, 1941.333
445.8122, 1930.205
446.2943, 1914.926
446.7764, 1894.192
447.2585, 1867.867
447.7406, 1835.654
448.2227, 1795.957
448.7049, 1751.794
449.1870, 1702.204
449.6691, 1646.215
450.1512, 1593.633
450.6333, 1546.398
451.1154, 1501.338
451.5976, 1455.896
452.0797, 1411.032
452.5618, 1364.500
453.0439, 1315.634
453.5260, 1265.448
454.0081, 1213.205
454.4903, 1158.185
454.9724, 1104.820
455.4545, 1053.325
455.9366, 1004.705
456.4187, 964.4111
456.9008, 933.8560
457.3830, 906.0977
457.8651, 876.2002
458.3472, 843.2222
458.8293, 805.2373
459.3114, 758.0791
459.7935, 708.6328
460.2757, 663.9058
460.7578, 623.7456
461.2399, 586.6313
461.7220, 552.5469
462.2041, 520.4746
462.6862, 490.1968
463.1684, 462.1299
463.6505, 434.4756
464.1326, 407.0771
464.6147, 379.8418
465.0968, 352.1421
465.5789, 322.3418
466.0611, 294.5293
466.5432, 270.1050
467.0253, 249.0654
467.5074, 229.0981
467.9895, 210.9712
468.4716, 193.1079
468.9538, 174.2476
469.4359, 150.6772
469.9180, 134.8628
470.4001, 129.2842
470.8822, 129.5039
471.3643, 129.9346
471.8465, 131.1470
472.3286, 130.2759
472.8107, 126.1387
473.2928, 119.0244
473.7749, 109.5381
474.2570, 96.70508
474.7392, 88.47314
475.2213, 93.11719
475.7034, 107.5859
476.1855, 116.9609
476.6676, 119.8828
477.1497, 120.0601
477.6319, 118.7476
478.1140, 116.1895
478.5961, 115.2505
479.0782, 120.6040
479.5603, 127.4287
480.0424, 128.7319
480.5246, 125.1655
481.0067, 122.3237
481.4888, 121.1099
481.9709, 123.1323
482.4530, 130.7690
482.9352, 147.0005
483.4173, 162.9141
483.8994, 176.8359
484.3815, 187.8535
484.8636, 194.4453
485.3457, 185.8750
485.8279, 183.4263
486.3100, 195.2256
486.7921, 221.5415
487.2742, 244.9844
487.7563, 265.3271
488.2384, 283.4722
488.7206, 299.0811
489.2027, 309.3047
489.6848, 325.2603
490.1669, 349.4116
490.6490, 376.9795
491.1311, 399.9531
491.6133, 417.0757
492.0954, 437.0762
492.5775, 463.4751
493.0596, 494.5176
493.5417, 523.9644
494.0238, 551.5918
494.5060, 579.6543
494.9881, 611.0869
495.4702, 643.8398
495.9523, 673.9829
496.4344, 700.8164
496.9165, 724.5127
497.3987, 744.0303
497.8808, 760.7085
498.3629, 776.7646
498.8450, 795.5098
499.3271, 812.0371
499.8092, 823.9297
500.2914, 831.1768
500.7735, 832.8682
501.2556, 821.8564
501.7377, 810.4839
502.2198, 807.5684
502.7019, 820.4873
503.1841, 825.3101
503.6662, 815.2031
504.1483, 797.1133
504.6304, 779.1411
505.1125, 762.7261
505.5946, 744.6274
506.0768, 724.4819
506.5589, 702.1514
507.0410, 675.8062
507.5231, 643.6558
508.0052, 612.4395
508.4873, 585.5913
508.9695, 563.4658
509.4516, 541.2178
509.9337, 518.7817
510.4158, 496.0879
510.8979, 473.3760
511.3800, 450.2729
511.8622, 425.9941
512.3443, 399.3623
512.8264, 372.7959
513.3085, 349.3315
513.7906, 328.4360
514.2728, 308.1226
514.7549, 290.1934
515.2370, 270.5635
515.7191, 243.2041
516.2012, 207.0381
516.6833, 175.9551
517.1655, 157.1689
517.6476, 145.6250
518.1297, 137.1196
518.6118, 135.9463
519.0939, 131.3740
519.5760, 118.9082
520.0582, 102.1060
520.5403, 89.11523
521.0224, 81.84521
521.5045, 75.92773
521.9866, 70.49756
522.4688, 65.48047
522.9509, 59.96045
523.4330, 53.53857
523.9151, 47.23389
524.3972, 41.80762
524.8793, 37.25732
525.3615, 32.91504
525.8436, 28.66553
526.3257, 24.46191
526.8078, 21.44922
527.2899, 18.89453
527.7720, 13.24072
528.2542, 0.8007810
528.7363, 13.60742
529.2184, 24.14795
529.7005, 31.00537
530.1826, 35.77588
530.6647, 37.00000
531.1469, 37.94727
531.6290, 43.01709
532.1111, 54.57227
532.5932, 60.85498
533.0753, 50.40137
533.5574, 35.19824
534.0396, 27.81006
534.5217, 42.29541
535.0038, 50.23877
535.4859, 43.70215
535.9680, 27.73877
536.4501, 18.22119
536.9323, 18.02783
537.4144, 19.30908
537.8965, 19.95947
538.3786, 20.02100
538.8607, 17.10791
539.3428, 10.19531
539.8250, 1.688477
540.3071, 5.386230
540.7892, 10.85352
541.2713, 16.94873
541.7534, 24.19141
542.2355, 31.14258
542.7177, 34.12549
543.1998, 34.74561
543.6819, 37.72168
544.1640, 46.37598
544.6461, 57.32617
545.1282, 68.17725
545.6104, 78.90674
546.0925, 89.11572
546.5746, 98.21338
547.0567, 106.9019
547.5388, 115.4341
548.0209, 122.8984
548.5031, 133.2178
548.9852, 148.9189
549.4673, 166.5195
549.9494, 182.5391
550.4315, 198.3579
550.9136, 210.5557
551.3958, 218.2256
551.8779, 222.2256
552.3600, 224.5093
552.8421, 224.1836
553.3242, 224.9409
553.8063, 228.9688
554.2885, 235.7051
554.7706, 240.0747
555.2527, 241.8545
555.7348, 243.8389
556.2169, 249.5479
556.6990, 257.3711
557.1812, 263.5303
557.6633, 267.8784
558.1454, 269.1748
558.6275, 263.0845
559.1096, 253.6802
559.5917, 247.6812
560.0739, 251.1113
560.5560, 255.7319
561.0381, 257.4688
561.5202, 256.9585
562.0023, 256.9932
562.4844, 258.0645
562.9666, 259.8809
563.4487, 262.8110
563.9308, 267.5869
564.4129, 269.8267
564.8950, 268.4751
565.3771, 265.7729
565.8593, 264.1782
566.3414, 264.8115
566.8235, 260.9390
567.3056, 250.1274
567.7877, 236.2812
568.2698, 226.0024
568.7520, 219.6895
569.2341, 217.9717
569.7162, 225.0527
570.1983, 234.4922
570.6804, 233.1172
571.1625, 222.8589
571.6447, 212.7256
572.1268, 208.4702
572.6089, 207.1899
573.0910, 207.3530
573.5731, 209.4292
574.0552, 208.6245
574.5374, 197.6440
575.0195, 185.2109
575.5016, 179.4272
575.9837, 189.3799
576.4658, 196.6289
576.9479, 198.3896
577.4301, 196.4297
577.9122, 193.9629
578.3943, 189.5044
578.8764, 187.3018
579.3585, 189.1548
579.8406, 194.2598
580.3228, 198.5850
580.8049, 202.7480
581.2870, 202.0239
581.7691, 191.2637
582.2512, 172.7046
582.7333, 154.1235
583.2155, 135.7031
583.6975, 120.2979
584.1796, 110.1914
584.6617, 104.7729
585.1439, 103.1929
585.6260, 106.7793
586.1081, 111.4897
586.5902, 117.9624
587.0723, 123.0015
587.5544, 120.4453
588.0366, 100.2329
588.5187, 80.77246
589.0008, 66.99658
589.4829, 58.79932
589.9650, 54.45264
590.4471, 59.09326
590.9293, 62.07764
591.4114, 56.61426
591.8935, 40.01758
592.3756, 29.72607
592.8577, 27.52979
593.3398, 28.58496
593.8220, 27.58887
594.3041, 24.61475
594.7862, 23.00635
595.2683, 24.56104
595.7504, 24.69531
596.2325, 14.72900
596.7147, 1.443848
597.1968, 13.83740
597.6789, 18.68115
598.1610, 17.77295
598.6431, 8.519043
599.1252, 6.575195
599.6074, 16.49756
600.0895, 12.90137
600.5716, 7.069336
601.0537, 4.629883
601.5358, 7.074219
602.0179, 7.550781
602.5001, 4.402344
602.9822, 0.8149410
603.4643, 0.3188480
603.9464, 2.457520
604.4285, 1.254883
604.9106, 6.007813
605.3928, 14.44531
605.8749, 16.21582
606.3570, 11.75830
606.8391, 6.474609
607.3212, 1.345703
607.8033, 2.826172
608.2855, 4.206055
608.7676, 3.374512
609.2497, 2.612305
609.7318, 2.714844
610.2139, 3.620117
610.6960, 5.565430
611.1782, 8.475586
611.6603, 11.24414
612.1424, 13.29834
612.6245, 15.26318
613.1066, 17.86670
613.5887, 22.97656
614.0709, 24.60059
614.5530, 21.57373
615.0351, 16.28467
615.5172, 10.38086
615.9993, 2.876953
616.4814, 0.4794920
616.9636, 1.873047
617.4457, 7.616699
617.9278, 13.80615
618.4099, 20.07031
618.8920, 22.87012
619.3741, 17.85156
619.8563, 10.55615
620.3384, 10.47705
620.8205, 16.10107
621.3026, 20.07422
621.7847, 17.28955
622.2668, 11.80518
622.7490, 5.904785
623.2311, 0.3701170
623.7132, 4.774902
624.1953, 8.072754
624.6774, 8.174316
625.1595, 2.799805
625.6417, 17.00586
626.1238, 23.95020
626.6059, 11.35791
627.0880, 6.632324
627.5701, 9.254883
628.0522, 5.628906
628.5344, 14.75146
629.0165, 11.07178
629.4986, 2.266602
629.9807, 4.437012
630.4628, 15.63818
630.9449, 25.41406
631.4271, 26.42920
631.9092, 24.73438
632.3913, 28.04834
632.8734, 35.25195
633.3555, 39.40283
633.8376, 30.99316
634.3198, 23.09961
634.8019, 24.75684
635.2840, 39.09473
635.7661, 50.93994
636.2482, 58.87744
636.7303, 63.86572
637.2125, 66.38525
637.6946, 66.04102
638.1767, 63.84326
638.6588, 58.30664
639.1409, 53.71484
639.6230, 57.71533
640.1052, 69.72217
640.5873, 80.21484
641.0694, 86.74121
641.5515, 90.64746
642.0336, 93.68604
642.5157, 95.64160
642.9979, 95.90625
643.4800, 91.12646
643.9621, 87.00830
644.4442, 87.78223
644.9263, 92.94336
645.4084, 99.25049
645.8906, 107.1997
646.3727, 114.7085
646.8548, 120.9468
647.3369, 125.9736
647.8190, 129.4966
648.3011, 131.3105
648.7833, 131.9214
649.2654, 130.7446
649.7475, 127.2661
650.2296, 127.3384
650.7117, 131.6514
651.1938, 138.9043
651.6760, 147.0732
652.1581, 156.6187
652.6402, 169.6963
653.1223, 189.3545
653.6044, 207.5103
654.0865, 215.1206
654.5687, 215.7266
655.0508, 217.1201
655.5329, 222.1782
656.0150, 229.9351
656.4971, 242.1343
656.9792, 258.0063
657.4614, 271.5044
657.9435, 279.1138
658.4256, 287.9233
658.9077, 301.1909
659.3898, 318.8091
659.8719, 332.5894
660.3541, 341.6006
660.8362, 350.0903
661.3183, 359.6699
661.8004, 371.4282
662.2825, 391.0620
662.7646, 418.9946
663.2468, 445.7407
663.7289, 460.1816
664.2110, 470.5684
664.6931, 487.3506
665.1752, 514.1714
665.6573, 544.1460
666.1395, 573.1714
666.6216, 604.0552
667.1037, 640.3877
667.5858, 690.8154
668.0679, 736.4155
668.5500, 772.3862
669.0322, 804.0669
669.5143, 841.4023
669.9964, 884.4775
670.4785, 933.3999
670.9606, 988.7466
671.4427, 1049.808
671.9249, 1113.101
672.4070, 1178.981
672.8891, 1249.362
673.3712, 1325.029
673.8533, 1405.344
674.3354, 1488.747
674.8176, 1575.797
675.2997, 1666.351
675.7818, 1756.683
676.2639, 1852.036
676.7460, 1957.805
677.2281, 2076.199
677.7103, 2190.190
678.1924, 2297.669
678.6745, 2402.318
679.1566, 2509.271
679.6387, 2621.519
680.1208, 2723.919
680.6030, 2818.451
681.0851, 2898.165
681.5672, 2959.421
682.0493, 3000.918
682.5314, 3020.022
683.0135, 3016.921
683.4957, 2990.465
683.9778, 2935.795
684.4599, 2855.922
684.9420, 2758.765
685.4241, 2640.016
685.9063, 2512.987
686.3884, 2374.772
686.8705, 2229.760
687.3526, 2091.571
687.8347, 1961.075
688.3168, 1835.234
688.7990, 1714.387
689.2811, 1597.354
689.7632, 1487.162
690.2453, 1384.549
690.7274, 1286.570
691.2095, 1189.933
