##NAMES=Lefontite
##RRUFFID=R140539
##IDEAL CHEMISTRY=Fe^2+^_2_Al_2_Be(PO_4_)_2_(OH)_6_
##LOCALITY=Palermo No. 1 mine, Groton, New Hampshire, USA
##OWNER=RRUFF
##SOURCE=Benjamin N. Schumer
##DESCRIPTION=Dark or reddish brown prismatic crystals, associated with grey bladed eosphorite, colorless or white prismatic palermoite (R120141), and natropalermoite (130092).
##STATUS=The identification of this mineral is confirmed by single-crystal X-ray diffraction and chemical analysis.
##URL=rruff.info/R140539
##MEASURED CHEMISTRY=(Fe^2+^_1.22_Mn_0.48_Ca_0.16_Mg_0.05_)_Î£=1.91_Al_1.91_Be_0.97_(PO_4_)_2_(OH)_6.50_ ; Be2+ needs to be analyzed by Icp-ms
108.1036, 0.0000000E+00
108.5858, 0.1217040
109.0679, 0.3116460
109.5500, 1.567627
110.0321, 3.472107
110.5142, 5.917725
110.9963, 9.468658
111.4785, 12.76318
111.9606, 15.54495
112.4427, 17.81766
112.9248, 20.03268
113.4069, 22.23489
113.8890, 24.40750
114.3712, 26.55365
114.8533, 29.36533
115.3354, 31.50061
115.8175, 32.18735
116.2996, 31.26511
116.7817, 30.60086
117.2639, 31.49329
117.7460, 32.85403
118.2281, 33.31549
118.7102, 31.56375
119.1923, 29.41534
119.6744, 27.84604
120.1566, 26.95044
120.6387, 26.59946
121.1208, 26.82315
121.6029, 27.53995
122.0850, 28.49734
122.5671, 30.22559
123.0493, 31.79980
123.5314, 32.14743
124.0135, 30.80170
124.4956, 28.90552
124.9777, 27.36310
125.4598, 26.13657
125.9420, 25.14703
126.4241, 24.36353
126.9062, 23.77054
127.3883, 23.38004
127.8704, 23.32474
128.3525, 23.69601
128.8347, 24.35593
129.3168, 24.71545
129.7989, 24.79599
130.2810, 24.55463
130.7631, 23.78418
131.2452, 23.08051
131.7274, 23.11249
132.2095, 23.71698
132.6916, 23.37744
133.1737, 21.40106
133.6558, 19.45840
134.1379, 19.43640
134.6201, 20.26102
135.1022, 20.55405
135.5843, 20.02481
136.0664, 18.89630
136.5485, 17.94891
137.0306, 17.56839
137.5128, 17.48630
137.9949, 17.33063
138.4770, 17.12256
138.9591, 16.85321
139.4412, 16.62759
139.9233, 16.49332
140.4055, 15.59512
140.8876, 13.57605
141.3697, 11.13474
141.8518, 9.425385
142.3339, 8.650970
142.8160, 8.147400
143.2982, 7.725433
143.7803, 7.453796
144.2624, 7.041901
144.7445, 6.429138
145.2266, 5.695557
145.7087, 5.068939
146.1909, 4.711090
146.6730, 4.251465
147.1551, 3.523224
147.6372, 2.312317
148.1193, 1.210236
148.6014, 0.1165770
149.0836, 0.8768620
149.5657, 1.489868
150.0478, 1.394318
150.5299, 1.169098
151.0120, 1.065063
151.4941, 1.378326
151.9763, 1.473846
152.4584, 1.200195
152.9405, 0.6484380
153.4226, 0.2604680
153.9047, 1.4709000E-02
154.3868, 1.8646000E-02
154.8690, 0.1985780
155.3511, 1.091614
155.8332, 1.790527
156.3153, 2.185486
156.7974, 2.276520
157.2795, 2.083893
157.7617, 0.8420410
158.2438, 0.2799380
158.7259, 0.4398500
159.2080, 1.880402
159.6901, 3.906342
160.1722, 4.691925
160.6544, 4.270569
161.1365, 3.670807
161.6186, 3.060577
162.1007, 2.520813
162.5828, 2.112885
163.0649, 2.156952
163.5471, 2.108612
164.0292, 1.556671
164.5113, 0.4898990
164.9934, 0.3210140
165.4755, 0.2319640
165.9576, 0.2096560
166.4398, 0.4571230
166.9219, 7.5897001E-02
167.4040, 0.4266360
167.8861, 0.6430660
168.3682, 0.5312500
168.8503, 0.5526430
169.3325, 1.237488
169.8146, 2.230957
170.2967, 2.951385
170.7788, 2.958496
171.2609, 2.697357
171.7430, 2.533203
172.2252, 2.488434
172.7073, 2.557343
173.1894, 2.647095
173.6715, 2.843964
174.1536, 3.330536
174.6357, 4.679626
175.1179, 6.172424
175.6000, 6.764099
176.0821, 6.220581
176.5642, 5.588623
177.0463, 6.138245
177.5284, 7.502350
178.0106, 8.547150
178.4927, 8.345490
178.9748, 7.507690
179.4569, 7.040253
179.9390, 7.046478
180.4211, 7.385834
180.9033, 8.063446
181.3854, 9.006866
181.8675, 9.845917
182.3496, 10.28790
182.8317, 10.47632
183.3138, 10.80066
183.7960, 11.34048
184.2781, 11.90036
184.7602, 12.14792
185.2423, 12.11588
185.7244, 12.07678
186.2065, 12.18048
186.6887, 12.40207
187.1708, 12.64227
187.6529, 12.85333
188.1350, 13.14520
188.6171, 13.81451
189.0992, 14.85349
189.5814, 15.79642
190.0635, 16.21790
190.5456, 16.21945
191.0277, 16.49445
191.5098, 17.20093
191.9919, 18.09085
192.4741, 18.72461
192.9562, 19.10635
193.4383, 19.17697
193.9204, 18.68878
194.4025, 17.69162
194.8846, 17.07913
195.3668, 17.05167
195.8489, 17.35443
196.3310, 17.43628
196.8131, 17.29807
197.2952, 16.92349
197.7773, 16.05640
198.2595, 14.67093
198.7416, 13.99487
199.2237, 14.38467
199.7058, 15.41040
200.1879, 15.81122
200.6700, 15.46112
201.1522, 15.08783
201.6343, 15.40179
202.1164, 16.54303
202.5985, 16.84344
203.0806, 15.77313
203.5627, 13.90961
204.0449, 13.23416
204.5270, 14.02167
205.0091, 15.08344
205.4912, 15.55072
205.9733, 15.27963
206.4554, 15.13809
206.9376, 15.33105
207.4197, 15.70984
207.9018, 15.57339
208.3839, 14.70825
208.8660, 13.89819
209.3481, 13.76074
209.8303, 14.51205
210.3124, 15.08356
210.7945, 15.37692
211.2766, 15.41556
211.7587, 15.28983
212.2408, 14.91165
212.7230, 14.50424
213.2051, 14.09750
213.6872, 13.56915
214.1693, 13.57870
214.6514, 14.46368
215.1335, 15.96323
215.6157, 16.76013
216.0978, 16.54269
216.5799, 16.08502
217.0620, 15.81152
217.5441, 15.85712
218.0262, 15.73047
218.5084, 15.34918
218.9905, 14.83307
219.4726, 14.79504
219.9547, 15.50360
220.4368, 16.21930
220.9189, 16.38251
221.4011, 15.70138
221.8832, 15.31863
222.3653, 15.40326
222.8474, 15.84180
223.3295, 16.28403
223.8116, 16.70557
224.2938, 17.15137
224.7759, 17.70703
225.2580, 18.53534
225.7401, 19.02725
226.2222, 19.05527
226.7043, 18.70996
227.1865, 18.32794
227.6686, 17.75565
228.1507, 17.37961
228.6328, 17.55719
229.1149, 18.86835
229.5970, 19.32462
230.0792, 18.46872
230.5613, 16.67297
231.0434, 15.41394
231.5255, 14.85596
232.0076, 14.62756
232.4897, 14.56085
232.9719, 14.69327
233.4540, 14.94284
233.9361, 15.43268
234.4182, 16.03647
234.9003, 16.29367
235.3824, 16.05441
235.8646, 15.68338
236.3467, 15.34003
236.8288, 14.98999
237.3109, 14.72952
237.7930, 14.55835
238.2751, 14.46722
238.7573, 14.45883
239.2394, 14.60178
239.7215, 14.70920
240.2036, 14.68140
240.6857, 14.42783
241.1678, 14.23355
241.6500, 14.16602
242.1321, 14.13605
242.6142, 13.86490
243.0963, 13.05569
243.5784, 12.44958
244.0605, 12.45804
244.5427, 13.53809
245.0248, 14.04358
245.5069, 13.77896
245.9890, 13.02203
246.4711, 12.38605
246.9532, 11.94345
247.4354, 11.49866
247.9175, 10.90475
248.3996, 9.923523
248.8817, 9.628693
249.3638, 10.41287
249.8459, 11.67136
250.3281, 12.22812
250.8102, 11.64075
251.2923, 11.13724
251.7744, 11.20847
252.2565, 12.07849
252.7386, 12.57501
253.2208, 12.54578
253.7029, 12.25607
254.1850, 12.11948
254.6671, 12.20923
255.1492, 12.29144
255.6313, 12.23801
256.1135, 11.97791
256.5956, 12.02722
257.0777, 12.45621
257.5598, 13.11133
258.0419, 13.84399
258.5240, 14.77682
259.0062, 15.47495
259.4883, 15.77557
259.9704, 15.65161
260.4525, 15.48547
260.9346, 15.22302
261.4167, 14.99368
261.8989, 15.00696
262.3810, 15.44034
262.8631, 15.63892
263.3452, 15.28540
263.8273, 14.38766
264.3094, 14.32468
264.7916, 15.45624
265.2737, 16.85782
265.7558, 17.58575
266.2379, 17.39624
266.7200, 17.35791
267.2021, 17.80014
267.6843, 18.63013
268.1664, 18.81247
268.6485, 18.02042
269.1306, 17.25101
269.6127, 17.42819
270.0948, 18.74887
270.5770, 20.12769
271.0591, 21.49118
271.5412, 22.75287
272.0233, 23.46869
272.5054, 23.49356
272.9875, 23.32224
273.4697, 23.28693
273.9518, 23.39841
274.4339, 23.55063
274.9160, 23.74680
275.3981, 23.96979
275.8802, 24.16873
276.3624, 24.34900
276.8445, 24.50070
277.3266, 24.68704
277.8087, 24.93301
278.2908, 24.80997
278.7729, 24.15295
279.2551, 23.26859
279.7372, 22.84512
280.2193, 22.90610
280.7014, 23.28537
281.1835, 24.17960
281.6656, 25.57077
282.1478, 26.03607
282.6299, 25.29895
283.1120, 24.06094
283.5941, 23.47479
284.0762, 23.56058
284.5583, 23.86105
285.0405, 24.26697
285.5226, 24.75140
286.0047, 25.03296
286.4868, 25.07272
286.9689, 25.03247
287.4510, 25.11008
287.9332, 25.30396
288.4153, 25.56836
288.8974, 25.86328
289.3795, 26.22610
289.8616, 26.85660
290.3438, 27.79764
290.8259, 28.70764
291.3080, 29.14337
291.7901, 29.16733
292.2722, 29.20145
292.7543, 29.43695
293.2365, 29.75635
293.7186, 29.81952
294.2007, 29.62607
294.6828, 29.43619
295.1649, 29.43311
295.6470, 29.63034
296.1292, 30.09961
296.6113, 30.95569
297.0934, 31.90527
297.5755, 32.55777
298.0576, 32.93134
298.5397, 33.16745
299.0219, 33.33780
299.5040, 33.42261
299.9861, 33.29694
300.4682, 32.80136
300.9503, 32.37903
301.4324, 32.69623
301.9146, 33.59775
302.3967, 34.41623
302.8788, 34.59277
303.3609, 34.50314
303.8430, 34.75427
304.3251, 35.49271
304.8073, 36.23758
305.2894, 36.65720
305.7715, 36.78943
306.2536, 36.70319
306.7357, 36.23212
307.2178, 35.62515
307.7000, 35.06946
308.1821, 34.58017
308.6642, 34.35379
309.1463, 34.72461
309.6284, 35.41504
310.1105, 35.99832
310.5927, 36.26697
311.0748, 36.36746
311.5569, 36.48709
312.0390, 36.62943
312.5211, 36.43320
313.0032, 35.23560
313.4854, 33.76523
313.9675, 32.81631
314.4496, 33.20361
314.9317, 33.68738
315.4138, 33.70114
315.8959, 33.29828
316.3781, 32.78607
316.8602, 32.28091
317.3423, 31.74210
317.8244, 31.15067
318.3065, 30.57941
318.7886, 29.84991
319.2708, 28.67862
319.7529, 27.27582
320.2350, 26.22910
320.7171, 25.97873
321.1992, 25.93588
321.6813, 25.82547
322.1635, 25.60001
322.6456, 25.31812
323.1277, 24.95627
323.6098, 24.54391
324.0919, 24.13040
324.5740, 23.84598
325.0562, 23.45377
325.5383, 22.87341
326.0204, 22.07614
326.5025, 21.19830
326.9846, 19.87915
327.4667, 18.64377
327.9489, 18.03668
328.4310, 19.05463
328.9131, 19.59885
329.3952, 19.29977
329.8773, 18.14661
330.3594, 16.74332
330.8416, 14.66782
331.3237, 12.72104
331.8058, 11.48999
332.2879, 11.28766
332.7700, 11.29480
333.2521, 11.65918
333.7343, 12.20517
334.2164, 12.00131
334.6985, 10.57959
335.1806, 9.137634
335.6627, 8.349457
336.1448, 8.475128
336.6270, 8.494812
337.1091, 8.427338
337.5912, 8.211365
338.0733, 7.672485
338.5554, 6.746521
339.0375, 5.734833
339.5197, 4.666412
340.0018, 3.530426
340.4839, 2.801453
340.9660, 2.557465
341.4481, 2.590393
341.9302, 2.750763
342.4124, 3.060516
342.8945, 3.143402
343.3766, 2.818390
343.8587, 2.177765
344.3408, 1.602600
344.8229, 1.099030
345.3051, 0.6434330
345.7872, 0.2558900
346.2693, 7.9773001E-02
346.7514, 0.5218510
347.2335, 1.151855
347.7156, 1.826752
348.1978, 2.255615
348.6799, 2.444824
349.1620, 2.501556
349.6441, 2.396240
350.1262, 2.212860
350.6083, 2.186737
351.0905, 2.385193
351.5726, 2.598785
352.0547, 2.481262
352.5368, 2.158875
353.0189, 2.013397
353.5010, 2.694916
353.9832, 3.446716
354.4653, 3.058899
354.9474, 1.432373
355.4295, 4.1168001E-02
355.9116, 0.4114380
356.3937, 1.690918
356.8759, 2.589142
357.3580, 2.340820
357.8401, 1.811768
358.3222, 1.614471
358.8043, 1.684540
359.2864, 1.635468
359.7686, 1.073303
360.2507, 0.4013670
360.7328, 2.3190000E-03
361.2149, 0.1758420
361.6970, 0.2445070
362.1791, 0.3005680
362.6613, 1.160339
363.1434, 1.651123
363.6255, 0.9646000
364.1076, 0.3261720
364.5897, 0.3869020
365.0718, 1.462128
365.5540, 2.389801
366.0361, 2.917175
366.5182, 3.206787
367.0003, 3.454742
367.4824, 3.403931
367.9645, 3.606567
368.4467, 4.327026
368.9288, 5.594635
369.4109, 6.593231
369.8930, 7.159271
370.3751, 7.594269
370.8572, 8.110687
371.3394, 8.865417
371.8215, 9.424011
372.3036, 9.590607
372.7857, 9.542969
373.2678, 9.964691
373.7499, 11.13333
374.2321, 12.27298
374.7142, 12.90976
375.1963, 12.79086
375.6784, 13.31647
376.1605, 14.72171
376.6426, 16.46420
377.1248, 17.64423
377.6069, 18.18958
378.0890, 18.66800
378.5711, 19.24948
379.0532, 19.92169
379.5353, 20.55524
380.0175, 21.14447
380.4996, 21.75113
380.9817, 22.55164
381.4638, 23.49030
381.9459, 24.04315
382.4280, 23.92078
382.9102, 23.59424
383.3923, 24.13837
383.8744, 25.46356
384.3565, 26.64761
384.8386, 26.75580
385.3207, 26.34851
385.8029, 26.75809
386.2850, 28.27750
386.7671, 29.74573
387.2492, 29.76489
387.7313, 28.81619
388.2134, 27.99570
388.6956, 27.70105
389.1777, 27.83640
389.6598, 28.53790
390.1419, 29.76245
390.6240, 30.80911
391.1061, 31.00543
391.5883, 30.91998
392.0704, 31.16983
392.5525, 32.20285
393.0346, 33.22205
393.5167, 33.87497
393.9988, 34.24023
394.4810, 34.54453
394.9631, 34.63284
395.4452, 34.86124
395.9273, 35.45667
396.4094, 36.57510
396.8915, 37.64026
397.3737, 38.53525
397.8558, 39.31979
398.3379, 40.06598
398.8200, 40.59363
399.3021, 41.27072
399.7842, 42.30157
400.2664, 43.67953
400.7485, 44.64713
401.2306, 44.89215
401.7127, 45.01700
402.1948, 45.34875
402.6769, 45.70761
403.1591, 46.71802
403.6412, 48.69943
404.1233, 51.19266
404.6054, 53.14838
405.0875, 54.51535
405.5696, 55.36401
406.0518, 55.59036
406.5339, 55.19006
407.0160, 55.13687
407.4981, 55.50122
407.9802, 56.07858
408.4623, 56.59311
408.9445, 57.03989
409.4266, 57.68274
409.9087, 58.68109
410.3908, 59.88272
410.8729, 60.84467
411.3550, 61.53357
411.8372, 62.16776
412.3193, 62.98447
412.8014, 64.03586
413.2835, 65.28940
413.7656, 66.66156
414.2477, 67.89294
414.7299, 68.79965
415.2120, 69.49707
415.6941, 70.04193
416.1762, 70.04388
416.6583, 70.09180
417.1404, 70.92786
417.6226, 72.56458
418.1047, 74.04160
418.5868, 74.69894
419.0689, 74.88901
419.5510, 75.00980
420.0331, 75.44360
420.5153, 75.58783
420.9974, 74.97589
421.4795, 73.85812
421.9616, 72.90796
422.4437, 72.55328
422.9258, 72.25156
423.4080, 71.69183
423.8901, 70.72253
424.3722, 69.95239
424.8543, 69.71820
425.3364, 69.57718
425.8185, 69.09491
426.3007, 67.85400
426.7828, 66.91608
427.2649, 66.69949
427.7470, 66.99625
428.2291, 66.34109
428.7112, 64.33014
429.1934, 62.06860
429.6755, 60.12732
430.1576, 58.59698
430.6397, 56.90164
431.1218, 54.90192
431.6039, 52.93280
432.0861, 51.74014
432.5682, 51.40887
433.0503, 50.47488
433.5324, 47.87231
434.0145, 44.37756
434.4966, 43.15213
434.9788, 44.27380
435.4609, 45.38705
435.9430, 44.23892
436.4251, 41.51154
436.9072, 39.08621
437.3893, 37.27597
437.8715, 35.88763
438.3536, 34.79935
438.8357, 33.96713
439.3178, 33.26892
439.7999, 32.99075
440.2820, 32.58887
440.7642, 31.35788
441.2463, 29.24319
441.7284, 27.37897
442.2105, 26.76227
442.6926, 26.49759
443.1747, 25.69891
443.6569, 23.23923
444.1390, 21.27292
444.6211, 21.27396
445.1032, 22.38165
445.5853, 22.10898
446.0674, 17.93289
446.5496, 14.12360
447.0317, 12.58868
447.5138, 14.45367
447.9959, 15.04929
448.4780, 13.55197
448.9601, 11.37891
449.4423, 9.890961
449.9244, 9.411133
450.4065, 8.980042
450.8886, 8.401581
451.3707, 7.772339
451.8528, 7.565491
452.3350, 7.949524
452.8171, 8.227753
453.2992, 7.969238
453.7813, 7.159393
454.2634, 6.306274
454.7455, 5.342224
455.2277, 4.538086
455.7098, 4.359558
456.1919, 4.714752
456.6740, 4.987854
457.1561, 4.983276
457.6382, 4.770691
458.1204, 4.459198
458.6025, 4.046478
459.0846, 3.527008
459.5667, 2.664734
460.0488, 1.785431
460.5309, 1.351654
461.0131, 1.492828
461.4952, 1.793030
461.9773, 2.147522
462.4594, 2.435181
462.9415, 2.480164
463.4236, 2.015198
463.9058, 1.478729
464.3879, 1.018616
464.8700, 0.6441040
465.3521, 0.3370970
465.8342, 4.4585999E-02
466.3163, 0.1527710
466.7985, 0.2008670
467.2806, 6.8049999E-03
467.7627, 0.1759950
468.2448, 0.3641360
468.7269, 0.4813230
469.2090, 0.3654170
469.6912, 0.2433170
470.1733, 0.5964360
470.6554, 0.3860470
471.1375, 0.2898250
471.6196, 0.4101870
472.1017, 0.2105410
472.5839, 0.8686830
473.0660, 1.013519
473.5481, 0.6369630
474.0302, 0.5445560
474.5123, 0.8710330
474.9944, 1.286407
475.4766, 1.292877
475.9587, 0.9322510
476.4408, 0.4739070
476.9229, 0.1476750
477.4050, 0.7026060
477.8871, 0.6920780
478.3693, 0.1736450
478.8514, 0.3528440
479.3335, 0.6087040
479.8156, 0.6413570
480.2977, 0.4620060
480.7798, 5.8502000E-02
481.2620, 0.4122920
481.7441, 0.7665710
482.2262, 1.154297
482.7083, 1.800507
483.1904, 3.276886
483.6725, 4.543823
484.1547, 5.079987
484.6368, 4.942322
485.1189, 4.952209
485.6010, 5.031738
486.0831, 5.412384
486.5652, 6.257080
487.0474, 8.015991
487.5295, 9.218140
488.0116, 9.575012
488.4937, 9.587433
488.9758, 9.968842
489.4579, 10.83585
489.9401, 11.73428
490.4222, 12.60886
490.9043, 13.42615
491.3864, 14.01331
491.8685, 14.33722
492.3506, 14.67566
492.8328, 15.26810
493.3149, 16.04947
493.7970, 16.75311
494.2791, 17.37250
494.7612, 17.86499
495.2433, 18.11102
495.7255, 18.19727
496.2076, 18.34137
496.6897, 18.59830
497.1718, 18.97583
497.6539, 19.49445
498.1360, 20.14169
498.6182, 20.87860
499.1003, 21.98587
499.5824, 22.96613
500.0645, 23.32895
500.5466, 22.83890
501.0287, 22.60083
501.5109, 23.10092
501.9930, 23.92868
502.4751, 24.66913
502.9572, 25.30008
503.4393, 25.79691
503.9214, 26.10455
504.4036, 26.26825
504.8857, 26.45297
505.3678, 26.67072
505.8499, 26.89474
506.3320, 27.13022
506.8141, 27.38409
507.2963, 27.58334
507.7784, 27.75830
508.2605, 27.80533
508.7426, 27.51065
509.2247, 26.90839
509.7068, 26.51761
510.1890, 26.44086
510.6711, 26.60107
511.1532, 27.19260
511.6353, 28.03275
512.1174, 28.25171
512.5995, 26.59216
513.0817, 24.49664
513.5638, 23.99008
514.0459, 25.03357
514.5280, 25.86307
515.0101, 25.09503
515.4922, 23.72668
515.9744, 22.72107
516.4565, 22.50519
516.9386, 22.20709
517.4207, 21.31354
517.9028, 20.19577
518.3849, 19.47382
518.8671, 20.06790
519.3492, 20.19971
519.8313, 19.12164
520.3134, 16.97598
520.7955, 15.87344
521.2776, 16.40103
521.7598, 17.07547
522.2419, 17.02441
522.7240, 16.08276
523.2061, 15.29041
523.6882, 14.68997
524.1703, 14.16458
524.6525, 13.59387
525.1346, 12.99094
525.6167, 12.31216
526.0988, 11.51114
526.5809, 10.68237
527.0630, 10.01627
527.5452, 9.467194
528.0273, 8.917084
528.5094, 8.251587
528.9915, 7.636353
529.4736, 7.225342
529.9557, 6.999603
530.4379, 6.730194
530.9200, 6.333649
531.4021, 5.869720
531.8842, 5.339722
532.3663, 4.584656
532.8484, 3.925323
533.3306, 3.514069
533.8127, 3.293091
534.2948, 3.116699
534.7769, 3.139709
535.2590, 3.014130
535.7411, 2.633392
536.2233, 1.988556
536.7054, 1.156921
537.1875, 9.5830001E-03
537.6696, 0.9920040
538.1517, 1.397919
538.6339, 1.166656
539.1160, 0.8855900
539.5981, 0.5704040
540.0802, 0.2922060
540.5623, 8.0719002E-02
541.0444, 3.0609000E-02
541.5266, 0.1218260
542.0087, 0.7382810
542.4908, 1.474823
542.9729, 1.891479
543.4550, 2.004913
543.9371, 1.896210
544.4193, 1.489594
544.9014, 0.9629820
545.3835, 0.3916320
545.8656, 0.2276000
546.3477, 0.6317140
546.8298, 0.4304810
547.3120, 0.1271670
547.7941, 0.1437680
548.2762, 0.9278260
548.7583, 1.505066
549.2404, 1.679077
549.7225, 1.639435
550.2047, 1.707153
550.6868, 1.935120
551.1689, 2.159729
551.6510, 2.293915
552.1331, 2.382904
552.6152, 2.789673
553.0974, 3.592651
553.5795, 4.344482
554.0616, 4.664185
554.5437, 4.650055
555.0258, 4.808594
555.5079, 5.158386
555.9901, 5.780579
556.4722, 7.247589
556.9543, 9.010223
557.4364, 9.809509
557.9185, 8.686981
558.4006, 7.459808
558.8828, 7.578430
559.3649, 8.688263
559.8470, 9.967834
560.3291, 11.43771
560.8112, 12.67279
561.2933, 13.36087
561.7755, 13.48325
562.2576, 13.77652
562.7397, 14.50497
563.2218, 15.28436
563.7039, 15.94464
564.1860, 16.49695
564.6682, 16.86752
565.1503, 16.91928
565.6324, 16.97342
566.1145, 17.51239
566.5966, 18.60873
567.0787, 19.59937
567.5609, 20.33441
568.0430, 20.91010
568.5251, 21.50992
569.0072, 22.13202
569.4893, 22.70404
569.9714, 23.14056
570.4536, 23.53030
