##NAMES=Lefontite
##RRUFFID=R140539
##IDEAL CHEMISTRY=Fe^2+^_2_Al_2_Be(PO_4_)_2_(OH)_6_
##LOCALITY=Palermo No. 1 mine, Groton, New Hampshire, USA
##OWNER=RRUFF
##SOURCE=Benjamin N. Schumer
##DESCRIPTION=Dark or reddish brown prismatic crystals, associated with grey bladed eosphorite, colorless or white prismatic palermoite (R120141), and natropalermoite (130092).
##STATUS=The identification of this mineral is confirmed by single-crystal X-ray diffraction and chemical analysis.
##URL=rruff.info/R140539
##MEASURED CHEMISTRY=(Fe^2+^_1.22_Mn_0.48_Ca_0.16_Mg_0.05_)_Î£=1.91_Al_1.91_Be_0.97_(PO_4_)_2_(OH)_6.50_ ; Be2+ needs to be analyzed by Icp-ms
93.97052, 0.0000000E+00
94.45264, 4.041016
94.93475, 5.617249
95.41687, 6.474121
95.89898, 7.159058
96.38110, 7.764343
96.86321, 8.320679
97.34533, 9.610474
97.82745, 10.63330
98.30956, 10.42389
98.79168, 11.30719
99.27380, 11.08228
99.75591, 8.418945
100.2380, 4.106079
100.7201, 0.4471440
101.2023, 0.8989870
101.6844, 0.2019650
102.1665, 0.6426390
102.6486, 1.493713
103.1307, 2.479431
103.6128, 3.558716
104.0950, 4.611023
104.5771, 5.642212
105.0592, 6.368774
105.5413, 6.980652
106.0234, 7.806580
106.5055, 9.084595
106.9877, 10.58563
107.4698, 11.14874
107.9519, 9.785828
108.4340, 8.561829
108.9161, 8.145630
109.3982, 8.450317
109.8804, 9.347168
110.3625, 10.66107
110.8446, 12.58679
111.3267, 13.81537
111.8088, 13.56470
112.2909, 13.24823
112.7731, 13.59045
113.2552, 14.68457
113.7373, 16.08350
114.2194, 17.21503
114.7015, 17.92712
115.1836, 18.48712
115.6658, 19.21423
116.1479, 19.76001
116.6300, 19.61310
117.1121, 18.67957
117.5942, 17.44434
118.0763, 17.43201
118.5584, 19.24872
119.0406, 20.81427
119.5227, 21.38013
120.0048, 21.24506
120.4869, 21.22437
120.9690, 21.90198
121.4511, 23.08136
121.9333, 24.53351
122.4154, 26.25897
122.8975, 28.68976
123.3796, 31.20670
123.8617, 34.01193
124.3438, 36.15381
124.8260, 35.52005
125.3081, 33.80011
125.7902, 32.53094
126.2723, 32.54446
126.7544, 33.34976
127.2365, 33.56223
127.7187, 32.71414
128.2008, 31.97354
128.6829, 31.86435
129.1650, 32.00476
129.6471, 31.93604
130.1292, 31.43704
130.6114, 30.53616
131.0935, 29.41913
131.5756, 27.70972
132.0577, 26.10568
132.5398, 24.80161
133.0219, 23.76355
133.5041, 22.85233
133.9862, 21.88181
134.4683, 20.78500
134.9504, 20.11609
135.4325, 20.42993
135.9146, 20.64673
136.3968, 19.93793
136.8789, 18.28989
137.3610, 16.50101
137.8431, 15.61063
138.3252, 15.90820
138.8073, 15.48251
139.2895, 13.60974
139.7716, 11.21536
140.2537, 9.420013
140.7358, 8.561676
141.2179, 8.007294
141.7000, 6.841492
142.1821, 5.117706
142.6643, 3.643829
143.1464, 2.842560
143.6285, 2.580994
144.1106, 2.388123
144.5927, 2.248077
145.0748, 2.050476
145.5570, 1.759583
146.0391, 1.372681
146.5212, 0.7875980
147.0033, 0.2249150
147.4854, 1.741547
147.9675, 2.963959
148.4497, 3.621948
148.9318, 4.011780
149.4139, 4.122070
149.8960, 3.983337
150.3781, 3.909424
150.8602, 4.468201
151.3424, 6.230164
151.8245, 6.402069
152.3066, 5.336578
152.7887, 3.984863
153.2708, 3.158478
153.7529, 3.147644
154.2351, 3.584686
154.7172, 3.546448
155.1993, 2.487152
155.6814, 1.559174
156.1635, 0.9298100
156.6456, 0.4158020
157.1278, 0.2553410
157.6099, 1.230042
158.0920, 2.363403
158.5741, 3.075714
159.0562, 3.001862
159.5383, 3.000580
160.0205, 3.210876
160.5026, 3.595734
160.9847, 4.102783
161.4668, 4.737671
161.9489, 5.460205
162.4310, 6.087738
162.9131, 6.374664
163.3953, 6.796967
163.8774, 7.769684
164.3595, 9.236572
164.8416, 10.61942
165.3237, 11.55057
165.8058, 12.12042
166.2880, 12.60773
166.7701, 13.10037
167.2522, 13.48169
167.7343, 13.48557
168.2164, 12.98660
168.6985, 12.73126
169.1807, 13.18573
169.6628, 14.12469
170.1449, 15.42480
170.6270, 17.32831
171.1091, 19.40378
171.5912, 20.57837
172.0734, 20.42270
172.5555, 20.09784
173.0376, 20.01468
173.5197, 20.08932
174.0018, 20.17136
174.4839, 20.10873
174.9661, 19.98520
175.4482, 20.38058
175.9303, 22.07190
176.4124, 23.44165
176.8945, 23.81625
177.3766, 23.57593
177.8588, 23.41498
178.3409, 23.85095
178.8230, 24.88785
179.3051, 25.83786
179.7872, 26.66794
180.2693, 27.44949
180.7515, 28.17697
181.2336, 28.87064
181.7157, 29.57538
182.1978, 30.33856
182.6799, 31.17627
183.1620, 31.77182
183.6441, 32.09613
184.1263, 32.27560
184.6084, 32.25845
185.0905, 32.10333
185.5726, 32.01675
186.0547, 32.17975
186.5368, 32.62970
187.0190, 33.31757
187.5011, 34.73627
187.9832, 36.03848
188.4653, 36.44888
188.9474, 35.91464
189.4296, 35.19879
189.9117, 35.06876
190.3938, 35.51450
190.8759, 35.79648
191.3580, 35.61652
191.8401, 35.33994
192.3223, 35.50247
192.8044, 36.26389
193.2865, 36.95114
193.7686, 36.60120
194.2507, 35.54840
194.7328, 34.85025
195.2150, 35.03189
195.6971, 35.75369
196.1792, 36.40082
196.6613, 36.99283
197.1434, 37.30670
197.6255, 37.08142
198.1077, 36.46378
198.5898, 35.82047
199.0719, 35.31055
199.5540, 34.91104
200.0361, 34.55435
200.5182, 34.24121
201.0004, 33.98480
201.4825, 33.85376
201.9646, 33.79486
202.4467, 33.67374
202.9288, 33.31882
203.4109, 32.75320
203.8930, 32.44098
204.3752, 32.59195
204.8573, 32.75546
205.3394, 32.98535
205.8215, 33.11127
206.3036, 32.73969
206.7857, 31.33072
207.2679, 28.80493
207.7500, 27.18442
208.2321, 27.85236
208.7142, 28.15656
209.1963, 26.78488
209.6784, 24.26227
210.1606, 21.97437
210.6427, 21.16068
211.1248, 21.98260
211.6069, 22.49451
212.0890, 22.59131
212.5711, 22.48730
213.0533, 22.25037
213.5354, 21.91669
214.0175, 21.52814
214.4996, 21.09012
214.9817, 20.53696
215.4638, 20.52667
215.9460, 21.65515
216.4281, 22.65939
216.9102, 22.79276
217.3923, 22.14157
217.8744, 21.33276
218.3565, 20.92267
218.8387, 20.96643
219.3208, 21.07101
219.8029, 21.44064
220.2850, 21.69733
220.7671, 21.47812
221.2492, 20.83365
221.7314, 20.24667
222.2135, 20.17566
222.6956, 20.65851
223.1777, 20.87891
223.6598, 20.48145
224.1419, 20.07324
224.6240, 20.21902
225.1062, 20.91980
225.5883, 21.59650
226.0704, 21.76053
226.5525, 21.45251
227.0346, 21.17538
227.5167, 20.98718
227.9989, 20.83014
228.4810, 20.70767
228.9631, 20.62686
229.4452, 20.41534
229.9273, 19.81177
230.4094, 18.97678
230.8916, 18.35864
231.3737, 18.20291
231.8558, 18.20438
232.3379, 17.99326
232.8200, 17.53516
233.3021, 17.10428
233.7843, 16.81958
234.2664, 16.69089
234.7485, 16.78333
235.2306, 17.29129
235.7127, 17.87387
236.1948, 18.03329
236.6770, 17.68622
237.1591, 17.26929
237.6412, 17.02112
238.1233, 16.82224
238.6054, 16.53302
239.0875, 16.09708
239.5697, 15.57120
240.0518, 15.00760
240.5339, 14.34567
241.0160, 13.83801
241.4981, 13.66843
241.9802, 13.65414
242.4624, 13.63290
242.9445, 13.54517
243.4266, 13.44327
243.9087, 13.45255
244.3908, 13.66702
244.8729, 13.72769
245.3550, 13.20349
245.8372, 12.65970
246.3193, 12.71042
246.8014, 13.59442
247.2835, 14.74069
247.7656, 15.15439
248.2477, 14.59857
248.7299, 13.82681
249.2120, 12.55017
249.6941, 11.38400
250.1762, 10.90292
250.6583, 11.26590
251.1404, 12.03745
251.6226, 12.52695
252.1047, 12.71918
252.5868, 12.63025
253.0689, 12.01477
253.5510, 11.33319
254.0331, 10.88269
254.5153, 10.74887
254.9974, 10.84863
255.4795, 11.06055
255.9616, 11.38599
256.4437, 11.84381
256.9258, 12.67700
257.4080, 13.44818
257.8901, 13.85358
258.3722, 13.84888
258.8543, 13.61752
259.3364, 13.39319
259.8185, 13.17276
260.3007, 12.96820
260.7828, 12.59888
261.2649, 12.36996
261.7470, 12.49036
262.2291, 12.96716
262.7112, 13.67914
263.1934, 14.56198
263.6755, 15.85586
264.1576, 16.36447
264.6397, 15.15161
265.1218, 14.08728
265.6039, 14.44318
266.0861, 16.08725
266.5682, 17.87875
267.0503, 18.64288
267.5324, 18.10608
268.0145, 18.31097
268.4966, 19.74252
268.9788, 21.30963
269.4609, 22.65448
269.9430, 23.68555
270.4251, 24.28885
270.9072, 24.28638
271.3893, 23.64163
271.8715, 23.57855
272.3536, 24.68124
272.8357, 25.66324
273.3178, 25.73737
273.7999, 25.19757
274.2820, 24.99432
274.7642, 25.88101
275.2463, 27.70059
275.7284, 28.36642
276.2105, 26.78940
276.6926, 25.52301
277.1747, 25.60345
277.6568, 26.64493
278.1389, 27.80069
278.6211, 28.66531
279.1032, 29.22256
279.5853, 29.34421
280.0674, 28.51822
280.5495, 27.93912
281.0316, 28.10275
281.5138, 28.68973
281.9959, 29.11649
282.4780, 29.11636
282.9601, 28.89395
283.4422, 28.95050
283.9243, 29.49780
284.4065, 29.89465
284.8886, 29.87732
285.3707, 29.66782
285.8528, 29.56601
286.3349, 29.66571
286.8170, 29.95258
287.2992, 30.42181
287.7813, 31.08401
288.2634, 31.82147
288.7455, 32.72623
289.2276, 33.64178
289.7097, 34.32315
290.1919, 34.70276
290.6740, 35.03845
291.1561, 35.72260
291.6382, 36.85672
292.1203, 37.63840
292.6024, 37.62225
293.0846, 37.37787
293.5667, 37.50586
294.0488, 38.06409
294.5309, 38.61615
295.0130, 38.65234
295.4951, 38.21576
295.9773, 38.43192
296.4594, 39.99930
296.9415, 41.67206
297.4236, 42.41483
297.9057, 42.26465
298.3878, 42.02774
298.8700, 42.30338
299.3521, 42.90176
299.8342, 42.94214
300.3163, 42.00433
300.7984, 41.05524
301.2805, 40.61951
301.7627, 40.64786
302.2448, 40.93600
302.7269, 41.53134
303.2090, 42.18771
303.6911, 42.18204
304.1732, 41.06866
304.6554, 40.10059
305.1375, 40.02618
305.6196, 40.53827
306.1017, 40.84247
306.5838, 40.63321
307.0659, 40.09692
307.5481, 39.51944
308.0302, 38.80984
308.5123, 38.36438
308.9944, 38.71237
309.4765, 39.32889
309.9586, 39.17834
310.4408, 37.88852
310.9229, 36.28006
311.4050, 35.51996
311.8871, 35.61871
312.3692, 35.59818
312.8513, 35.22189
313.3335, 34.64697
313.8156, 34.01028
314.2977, 33.32791
314.7798, 32.69092
315.2619, 32.27225
315.7440, 32.02728
316.2262, 31.43109
316.7083, 30.10968
317.1904, 28.65384
317.6725, 27.56027
318.1546, 26.82462
318.6367, 26.16373
319.1188, 25.36148
319.6010, 24.49414
320.0831, 23.86066
320.5652, 23.70020
321.0473, 23.52475
321.5294, 23.08380
322.0115, 22.41138
322.4937, 21.60361
322.9758, 20.70026
323.4579, 19.70029
323.9400, 18.59695
324.4221, 17.22971
324.9042, 16.09729
325.3864, 15.46436
325.8685, 15.17154
326.3506, 15.00253
326.8327, 14.95764
327.3148, 14.76108
327.7969, 13.81375
328.2791, 11.94717
328.7612, 10.45898
329.2433, 9.765808
329.7254, 9.497986
330.2075, 9.382874
330.6896, 9.374023
331.1718, 9.104523
331.6539, 8.037811
332.1360, 6.099426
332.6181, 4.787598
333.1002, 4.584595
333.5823, 4.700714
334.0645, 4.593658
334.5466, 4.254730
335.0287, 3.926971
335.5108, 3.852020
335.9929, 3.925476
336.4750, 3.482086
336.9572, 1.710815
337.4393, 0.3152770
337.9214, 0.3793330
338.4035, 1.375397
338.8856, 2.017212
339.3677, 1.672638
339.8499, 0.6995540
340.3320, 5.6885000E-02
340.8141, 0.1028140
341.2962, 0.2684630
341.7783, 0.5533750
342.2604, 0.8880920
342.7426, 1.154236
343.2247, 1.314972
343.7068, 1.486267
344.1889, 1.844116
344.6710, 2.498749
345.1531, 3.013977
345.6353, 3.328308
346.1174, 3.536194
346.5995, 3.693787
347.0816, 3.809662
347.5637, 3.877533
348.0458, 3.862183
348.5280, 3.754181
349.0101, 3.853973
349.4922, 4.479614
349.9743, 4.958923
350.4564, 4.988678
350.9385, 4.639801
351.4207, 4.052399
351.9028, 3.266998
352.3849, 2.393768
352.8670, 1.920044
353.3491, 2.417511
353.8312, 2.602905
354.3134, 2.059021
354.7955, 1.225616
355.2776, 0.7273560
355.7597, 0.7626950
356.2418, 0.8440550
356.7239, 7.4982002E-02
357.2061, 2.445190
357.6882, 3.943573
358.1703, 3.748444
358.6524, 3.137512
359.1345, 2.747375
359.6166, 2.763275
360.0987, 3.306763
360.5808, 4.577148
361.0630, 6.687439
361.5451, 8.420624
362.0272, 9.590393
362.5093, 10.60126
362.9914, 11.41116
363.4735, 12.17627
363.9557, 13.15884
364.4378, 14.53522
364.9199, 16.20438
365.4020, 17.72897
365.8841, 18.92145
366.3662, 20.22763
366.8484, 21.96417
367.3305, 23.69870
367.8126, 24.81519
368.2947, 25.17029
368.7768, 25.45535
369.2589, 26.87756
369.7411, 30.04242
370.2232, 32.69348
370.7053, 34.50647
371.1874, 36.03885
371.6695, 37.50479
372.1516, 38.95255
372.6338, 40.42038
373.1159, 41.96634
373.5980, 43.58032
374.0801, 44.99966
374.5622, 45.85208
375.0443, 46.98495
375.5265, 48.94183
376.0086, 51.28500
376.4907, 53.31192
376.9728, 54.65903
377.4549, 55.58139
377.9370, 56.61819
378.4192, 57.76370
378.9013, 59.04642
379.3834, 60.61093
379.8655, 62.23288
380.3476, 63.75082
380.8297, 65.13254
381.3119, 66.43024
381.7940, 67.72287
382.2761, 69.00989
382.7582, 70.07718
383.2403, 70.66971
383.7224, 71.31256
384.2046, 72.51016
384.6867, 74.08713
385.1688, 75.42938
385.6509, 76.10831
386.1330, 76.33078
386.6151, 76.56238
387.0973, 76.82397
387.5794, 77.01093
388.0615, 76.91339
388.5436, 76.74130
389.0257, 76.81158
389.5078, 77.24048
389.9900, 77.81522
390.4721, 78.40826
390.9542, 79.01035
391.4363, 79.52371
391.9184, 79.96796
392.4005, 80.22964
392.8827, 80.03473
393.3648, 79.32651
393.8469, 78.92517
394.3290, 79.61981
394.8111, 80.66528
395.2932, 80.73157
395.7754, 79.56088
396.2575, 78.22375
396.7396, 77.53940
397.2217, 77.52985
397.7038, 77.93170
398.1859, 79.14557
398.6681, 80.39261
399.1501, 81.13394
399.6323, 81.45261
400.1144, 81.71094
400.5965, 82.09201
401.0786, 82.54193
401.5607, 82.87488
402.0428, 82.98520
402.5250, 83.12543
403.0071, 83.30536
403.4892, 83.57968
403.9713, 84.09457
404.4534, 84.85712
404.9355, 85.56973
405.4177, 85.83551
405.8998, 85.48996
406.3819, 85.57034
406.8640, 86.31491
407.3461, 87.14020
407.8282, 87.81903
408.3104, 88.39465
408.7925, 88.96951
409.2746, 89.60187
409.7567, 90.34082
410.2388, 91.38669
410.7209, 93.22888
411.2031, 94.61856
411.6852, 95.26123
412.1673, 95.58932
412.6494, 95.87039
413.1315, 96.20395
413.6136, 96.74417
414.0958, 97.85324
414.5779, 99.86713
415.0600, 101.4226
415.5421, 101.8105
416.0242, 102.2243
416.5063, 103.2732
416.9885, 104.7382
417.4706, 105.9966
417.9527, 106.6150
418.4348, 106.7862
418.9169, 107.1528
419.3990, 107.7334
419.8812, 108.4573
420.3633, 109.7278
420.8454, 110.8958
421.3275, 111.1974
421.8096, 110.4279
422.2917, 109.4469
422.7739, 109.3207
423.2560, 109.9794
423.7381, 109.9377
424.2202, 108.6397
424.7023, 107.0336
425.1844, 105.8374
425.6666, 104.9591
426.1487, 104.0602
426.6308, 102.9247
427.1129, 101.7181
427.5950, 100.7700
428.0771, 100.0990
428.5593, 99.28210
429.0414, 98.12149
429.5235, 96.64243
430.0056, 94.97647
430.4877, 93.06369
430.9698, 91.10486
431.4520, 89.27460
431.9341, 87.46921
432.4162, 85.42786
432.8983, 83.07837
433.3804, 80.62027
433.8625, 78.23264
434.3447, 75.90948
434.8268, 73.86798
435.3089, 72.55429
435.7910, 71.14923
436.2731, 68.96585
436.7552, 66.18927
437.2374, 63.52582
437.7195, 61.39999
438.2016, 59.66888
438.6837, 57.83066
439.1658, 55.86069
439.6479, 53.80435
440.1301, 51.64987
440.6122, 49.42715
441.0943, 47.11133
441.5764, 44.74069
442.0585, 42.45596
442.5406, 40.42480
443.0227, 38.64218
443.5049, 37.12183
443.9870, 36.34897
444.4691, 35.34183
444.9512, 33.56494
445.4333, 31.40433
445.9154, 29.51770
446.3976, 28.28320
446.8797, 27.37469
447.3618, 26.02570
447.8439, 24.03342
448.3260, 22.20667
448.8081, 20.60251
449.2903, 19.26880
449.7724, 18.44556
450.2545, 18.04807
450.7366, 17.47479
451.2187, 15.93060
451.7008, 13.76140
452.1830, 12.61908
452.6651, 12.90834
453.1472, 13.29820
453.6293, 13.07727
454.1114, 12.44148
454.5935, 11.57448
455.0757, 10.38583
455.5578, 9.230957
456.0399, 8.444717
456.5220, 7.956680
457.0041, 7.425690
457.4862, 6.722168
457.9684, 6.013519
458.4505, 5.528732
458.9326, 5.259613
459.4147, 5.055298
459.8968, 5.066406
460.3789, 5.009125
460.8611, 4.475723
461.3432, 3.567947
461.8253, 2.925186
462.3074, 3.006180
462.7895, 3.580490
463.2716, 3.675262
463.7538, 2.880722
464.2359, 2.180237
464.7180, 1.669800
465.2001, 1.304703
465.6822, 1.126236
466.1643, 1.096939
466.6465, 0.9892270
467.1286, 0.5146940
467.6107, 0.4016720
468.0928, 1.025513
468.5749, 1.288132
469.0570, 1.324539
469.5392, 1.012970
470.0213, 0.5359950
470.5034, 0.1275790
470.9855, 0.1118770
471.4676, 0.2059330
471.9497, 0.1449130
472.4319, 0.1405180
472.9140, 0.2706300
473.3961, 4.9102999E-02
473.8782, 0.2469330
474.3603, 0.4434360
474.8424, 0.5509190
475.3246, 0.6825870
475.8067, 0.9538880
476.2888, 1.284546
476.7709, 1.449722
477.2530, 1.408600
477.7351, 1.452774
478.2173, 1.764694
478.6994, 2.258591
479.1815, 2.799149
479.6636, 3.402710
480.1457, 3.921127
480.6278, 4.058334
481.1100, 4.082733
481.5920, 4.582947
482.0742, 5.686142
482.5563, 6.842163
483.0384, 7.481537
483.5205, 7.619339
484.0026, 8.235718
484.4847, 9.864182
484.9669, 11.37537
485.4490, 12.22153
485.9311, 12.65877
486.4132, 13.11259
486.8953, 13.75005
487.3774, 14.53172
487.8596, 15.38319
488.3417, 16.38141
488.8238, 17.25427
489.3059, 17.87901
489.7880, 18.48744
490.2701, 19.09225
490.7523, 19.77878
491.2344, 20.75081
491.7165, 22.19516
492.1986, 23.85745
492.6807, 25.01155
493.1628, 25.53862
493.6450, 25.88255
494.1271, 25.72865
494.6092, 25.71664
495.0913, 26.50897
495.5734, 28.02652
496.0555, 29.31715
496.5377, 29.40320
497.0198, 28.78386
497.5019, 28.93422
497.9840, 30.05672
498.4661, 31.12617
498.9482, 31.56470
499.4304, 31.58995
499.9125, 31.63940
500.3946, 31.75032
500.8767, 31.84744
501.3588, 31.72244
501.8409, 31.60199
502.3231, 32.07547
502.8052, 33.27429
503.2873, 34.30159
503.7694, 34.18965
504.2515, 32.88208
504.7336, 32.24820
505.2158, 32.82808
505.6979, 33.39728
506.1800, 33.58214
506.6621, 33.45781
507.1442, 33.13818
507.6263, 32.67081
508.1085, 32.09988
508.5906, 31.47620
509.0727, 30.74426
509.5548, 30.15475
510.0369, 29.97890
510.5190, 29.67426
511.0012, 28.87996
511.4833, 27.82198
511.9654, 26.96082
512.4475, 26.55376
512.9296, 26.35294
513.4117, 25.95830
513.8939, 25.37366
514.3760, 24.52696
514.8581, 23.18272
515.3402, 21.78018
515.8223, 20.72552
516.3044, 19.97173
516.7866, 19.18210
517.2687, 18.09134
517.7508, 16.95453
518.2329, 16.10576
518.7150, 15.53644
519.1971, 15.09264
519.6793, 14.77594
520.1614, 14.45218
520.6435, 13.77371
521.1256, 12.58441
521.6077, 11.56012
522.0898, 11.09758
522.5720, 10.65170
523.0541, 9.541565
523.5362, 7.899872
524.0183, 6.558395
524.5004, 6.165741
524.9825, 6.517990
525.4647, 6.544159
525.9468, 6.087494
526.4289, 5.495453
526.9110, 4.623764
527.3931, 3.769287
527.8752, 3.203186
528.3574, 2.928589
528.8395, 2.728821
529.3216, 2.441574
529.8037, 2.070633
530.2858, 1.591568
530.7679, 0.9039000
531.2501, 0.3525700
531.7322, 0.1851960
532.2143, 0.1814580
532.6964, 0.1085360
533.1785, 8.2748003E-02
533.6606, 0.2346040
534.1428, 0.1173860
534.6249, 8.7279998E-02
535.1070, 6.4621001E-02
535.5891, 0.6506810
536.0712, 1.330109
536.5533, 1.917328
537.0355, 2.376831
537.5176, 2.534988
537.9997, 2.049622
538.4818, 1.710739
538.9639, 1.907867
539.4460, 2.298355
539.9282, 2.441605
540.4103, 2.255386
540.8924, 1.966949
541.3745, 1.807800
541.8566, 1.781204
542.3387, 1.763626
542.8209, 2.003662
543.3029, 1.936768
543.7850, 1.080017
544.2672, 3.6453001E-02
544.7493, 0.4328310
545.2314, 0.1489410
545.7135, 0.2841800
546.1956, 0.1451720
546.6777, 0.5048370
547.1599, 0.9087980
547.6420, 0.8864440
548.1241, 0.9170530
548.6062, 1.393417
549.0883, 2.101425
549.5704, 2.732483
550.0526, 3.295563
550.5347, 3.645966
551.0168, 3.484512
551.4989, 3.081573
551.9810, 2.933456
552.4631, 3.138489
552.9453, 3.821442
553.4274, 5.291901
553.9095, 7.555786
554.3916, 8.733215
554.8737, 7.725067
555.3558, 7.114670
555.8380, 8.153748
556.3201, 9.734375
556.8022, 10.34801
557.2843, 9.673828
557.7664, 8.685394
