##NAMES=Lourenswalsite
##RRUFFID=R060468
##IDEAL CHEMISTRY=(K,Ba)_2_Ti_4_(Si,Al)_6_O_14_(OH)_12_
##LOCALITY=Diamond Jo Quarry, Magnet Cove, Hot Spring County, Arkansas, USA
##OWNER=RRUFF
##SOURCE=Michael Scott
##DESCRIPTION=Rosettes of gray platy crystals
##STATUS=The identification of this mineral is not yet confirmed.
##URL=rruff.info/R060468
160.573, 0.000
161.055, 30.834
161.538, 68.451
162.020, 102.383
162.502, 50.229
162.984, 45.302
163.466, 75.169
163.948, 121.747
164.430, 116.241
164.912, 94.141
165.394, 63.206
165.876, 31.274
166.359, 29.771
166.841, 69.206
167.323, 53.119
167.805, 20.094
168.287, 122.079
168.769, 245.374
169.251, 383.023
169.733, 526.510
170.216, 677.505
170.698, 829.807
171.180, 978.813
171.662, 1125.340
172.144, 1267.075
172.626, 1393.192
173.108, 1513.220
173.590, 1652.732
174.072, 1842.677
174.555, 2051.629
175.037, 2243.175
175.519, 2408.902
176.001, 2570.008
176.483, 2747.885
176.965, 2939.623
177.447, 3127.230
177.929, 3293.981
178.412, 3450.127
178.894, 3613.407
179.376, 3787.119
179.858, 3963.838
180.340, 4142.042
180.822, 4318.277
181.304, 4474.058
181.786, 4588.348
182.268, 4671.563
182.751, 4748.768
183.233, 4824.385
183.715, 4896.486
184.197, 4960.949
184.679, 5018.285
185.161, 5064.445
185.643, 5092.892
186.125, 5105.830
186.607, 5119.055
187.090, 5144.143
187.572, 5167.716
188.054, 5151.956
188.536, 5094.804
189.018, 5026.356
189.500, 4967.161
189.982, 4917.940
190.464, 4893.306
190.947, 4801.580
191.429, 4710.727
191.911, 4620.684
192.393, 4531.297
192.875, 4442.429
193.357, 4226.090
193.839, 4071.800
194.321, 3932.605
194.803, 3768.328
195.286, 3592.313
195.768, 3523.984
196.250, 3455.494
196.732, 3386.852
197.214, 3318.062
197.696, 3249.148
198.178, 3180.084
198.661, 3110.926
199.143, 3041.646
199.625, 2984.287
200.107, 2944.018
200.589, 2918.029
201.071, 2904.697
201.553, 2906.675
202.035, 2907.235
202.517, 2895.713
202.999, 2870.036
203.482, 2850.823
203.964, 2833.071
204.446, 2826.940
204.928, 2854.178
205.410, 2915.264
205.892, 3004.980
206.374, 3102.742
206.857, 3192.999
207.339, 3242.614
207.821, 3292.116
208.303, 3341.492
208.785, 3390.762
209.267, 3439.913
209.749, 3488.958
210.231, 3537.879
210.713, 3586.681
211.195, 3635.368
211.678, 3683.943
212.160, 3732.390
212.642, 3780.753
213.124, 3828.969
213.606, 3877.079
214.088, 3925.078
214.570, 3972.957
215.052, 4054.389
215.535, 4001.777
216.017, 3974.806
216.499, 3987.044
216.981, 4049.605
217.463, 4115.116
217.945, 4132.922
218.427, 4041.676
218.909, 3981.857
219.391, 3972.541
219.874, 4006.215
220.356, 4031.840
220.838, 4040.811
221.320, 4056.279
221.802, 4092.458
222.284, 4147.766
222.766, 4227.525
223.248, 4338.057
223.731, 4479.090
224.213, 4593.701
224.695, 4663.113
225.177, 4737.032
225.659, 4853.851
226.141, 5030.206
226.623, 5208.713
227.105, 5386.471
227.587, 5562.781
228.070, 5701.561
228.552, 5797.159
229.034, 5860.612
229.516, 5898.633
229.998, 5904.135
230.480, 5898.072
230.962, 5888.072
231.444, 5874.581
231.926, 5828.812
232.409, 5755.742
232.891, 5645.668
233.373, 5486.916
233.855, 5274.266
234.337, 5021.286
234.819, 4715.871
235.301, 4349.967
235.783, 4024.692
236.266, 3757.683
236.748, 3515.353
237.230, 3259.991
237.712, 2963.695
238.194, 2700.484
238.676, 2495.397
239.158, 2352.461
239.640, 2204.704
240.122, 2046.365
240.605, 1888.684
241.087, 1742.804
241.569, 1600.397
242.051, 1483.137
242.533, 1405.101
243.015, 1372.469
243.497, 1315.578
243.980, 1215.236
244.462, 1106.464
244.944, 1028.224
245.426, 979.518
245.908, 971.123
246.390, 981.349
246.872, 995.902
247.354, 1009.620
247.836, 1023.034
248.318, 1036.496
248.801, 1050.081
249.283, 1061.613
249.765, 1089.331
250.247, 1131.589
250.729, 1188.920
251.211, 1245.283
251.693, 1302.379
252.176, 1362.873
252.658, 1430.929
253.140, 1514.904
253.622, 1592.684
254.104, 1657.479
254.586, 1706.878
255.068, 1769.839
255.550, 1854.663
256.032, 1945.071
256.514, 2021.015
256.997, 2081.535
257.479, 2131.214
257.961, 2175.458
258.443, 2216.741
258.925, 2223.323
259.407, 2187.827
259.889, 2125.311
260.371, 2050.552
260.854, 1956.711
261.336, 1864.046
261.818, 1776.106
262.300, 1692.927
262.782, 1612.735
263.264, 1535.698
263.746, 1460.519
264.228, 1390.347
264.711, 1332.120
265.193, 1256.334
265.675, 1149.654
266.157, 1012.044
266.639, 881.273
267.121, 758.440
267.603, 644.808
268.085, 542.651
268.567, 455.432
269.050, 371.647
269.532, 290.872
270.014, 213.463
270.496, 127.649
270.978, 28.334
271.460, 66.258
271.942, 131.653
272.424, 159.280
272.906, 195.190
273.389, 254.294
273.871, 219.094
274.353, 142.235
274.835, 72.704
275.317, 14.130
275.799, 29.322
276.281, 56.852
276.763, 73.409
277.246, 77.172
277.728, 70.687
278.210, 73.362
278.692, 90.715
279.174, 101.446
279.656, 102.177
280.138, 97.231
280.620, 33.429
281.103, 30.041
281.585, 93.224
282.067, 156.177
282.549, 218.947
283.031, 183.221
283.513, 116.109
283.995, 85.746
284.477, 36.424
284.959, 17.722
285.441, 74.355
285.924, 123.869
286.406, 165.499
286.888, 209.076
287.370, 263.375
287.852, 327.830
288.334, 392.831
288.816, 455.543
289.298, 518.659
289.781, 596.244
290.263, 688.868
290.745, 773.566
291.227, 829.724
291.709, 861.265
292.191, 881.814
292.673, 891.137
293.155, 894.597
293.638, 899.970
294.120, 907.146
294.602, 919.595
295.084, 962.741
295.566, 1015.390
296.048, 1008.917
296.530, 917.450
297.012, 793.577
297.494, 715.992
297.977, 678.536
298.459, 642.637
298.941, 589.948
299.423, 521.062
299.905, 431.465
300.387, 311.409
300.869, 194.076
301.351, 119.907
301.833, 81.060
302.316, 49.028
302.798, 10.543
303.280, 33.686
303.762, 90.308
304.244, 95.236
304.726, 29.635
305.208, 26.921
305.690, 69.493
306.172, 115.880
306.655, 105.721
307.137, 84.771
307.619, 50.972
308.101, 1.417
308.583, 51.857
309.065, 92.363
309.547, 131.218
310.030, 186.653
310.512, 269.614
310.994, 371.695
311.476, 494.004
311.958, 638.908
312.440, 776.960
312.922, 873.348
313.404, 958.590
313.886, 1074.361
314.369, 1257.189
314.851, 1458.915
315.333, 1647.950
315.815, 1824.212
316.297, 2010.619
316.779, 2216.328
317.261, 2436.228
317.743, 2668.490
318.225, 2906.115
318.708, 3161.111
319.190, 3439.374
319.672, 3741.087
320.154, 4049.029
320.636, 4345.232
321.118, 4653.662
321.600, 4991.905
322.082, 5356.574
322.565, 5760.631
323.047, 6168.100
323.529, 6598.853
324.011, 7158.844
324.493, 8001.605
324.975, 8882.580
325.457, 9670.521
325.939, 10301.720
326.422, 10901.981
326.904, 11439.729
327.386, 11941.992
327.868, 12514.062
328.350, 13179.822
328.832, 13901.257
329.314, 14660.718
329.796, 15467.634
330.278, 16285.980
330.760, 17104.607
331.243, 17926.857
331.725, 18779.090
332.207, 19697.658
332.689, 20616.477
333.171, 21494.791
333.653, 22332.861
334.135, 23165.209
334.617, 24006.623
335.100, 24827.805
335.582, 25572.629
336.064, 26235.629
336.546, 26832.008
337.028, 27370.789
337.510, 27847.453
337.992, 28245.254
338.474, 28583.656
338.957, 28823.770
339.439, 28924.533
339.921, 28878.926
340.403, 28716.102
340.885, 28441.637
341.367, 28064.527
341.849, 27618.926
342.331, 27096.129
342.813, 26523.711
343.296, 25918.150
343.778, 25274.834
344.260, 24563.346
344.742, 23763.691
345.224, 22919.979
345.706, 22154.271
346.188, 21466.812
346.670, 20792.277
347.152, 20047.719
347.635, 19265.963
348.117, 18584.402
348.599, 18038.172
349.081, 17564.074
349.563, 17077.111
350.045, 16584.955
350.527, 16120.472
351.009, 15705.662
351.491, 15337.205
351.974, 15019.786
352.456, 14754.119
352.938, 14518.208
353.420, 14288.496
353.902, 14070.785
354.384, 13876.094
354.866, 13688.516
355.349, 13541.764
355.831, 13493.475
356.313, 13550.850
356.795, 13598.499
357.277, 13541.624
357.759, 13432.691
358.241, 13341.615
358.723, 13295.725
359.205, 13276.135
359.688, 13286.572
360.170, 13322.442
360.652, 13339.007
361.134, 13299.355
361.616, 13236.229
362.098, 13179.548
362.580, 13165.359
363.062, 13134.284
363.544, 13085.191
364.027, 13008.061
364.509, 12870.639
364.991, 12616.035
365.473, 12334.178
365.955, 12077.048
366.437, 11884.052
366.919, 11646.002
367.401, 11348.454
367.884, 11000.650
368.366, 10622.125
368.848, 10197.814
369.330, 9758.853
369.812, 9303.261
370.294, 8816.501
370.776, 8367.066
371.258, 7999.226
371.741, 7647.560
372.223, 7230.422
372.705, 6685.809
373.187, 6189.224
373.669, 5790.724
374.151, 5486.126
374.633, 5134.532
375.115, 4706.570
375.597, 4273.445
376.079, 3897.750
376.562, 3586.037
377.044, 3285.127
377.526, 2991.714
378.008, 2702.575
378.490, 2409.653
378.972, 2104.356
379.454, 1828.931
379.936, 1617.416
380.419, 1466.039
380.901, 1294.944
381.383, 1086.382
381.865, 887.408
382.347, 810.612
382.829, 840.140
383.311, 829.951
383.793, 667.490
384.276, 417.786
384.758, 226.367
385.240, 100.787
385.722, 13.646
386.204, 59.367
386.686, 116.130
387.168, 83.994
387.650, 80.528
388.132, 93.872
388.615, 116.375
389.097, 77.333
389.579, 62.330
390.061, 117.356
390.543, 30.251
391.025, 19.082
391.507, 7.507
391.989, 41.754
392.471, 44.663
392.954, 26.444
393.436, 14.445
393.918, 37.235
394.400, 58.571
394.882, 52.819
395.364, 0.809
395.846, 30.658
396.328, 5.994
396.810, 44.196
397.293, 75.138
397.775, 35.656
398.257, 19.062
398.739, 70.934
399.221, 69.942
399.703, 4.828
400.185, 65.488
400.668, 123.971
401.150, 62.493
401.632, 25.855
402.114, 37.478
402.596, 123.442
403.078, 32.365
403.560, 52.667
404.042, 61.891
404.524, 62.267
405.007, 91.117
405.489, 152.793
405.971, 221.778
406.453, 298.948
406.935, 381.067
407.417, 456.219
407.899, 522.165
408.381, 605.262
408.863, 724.043
409.346, 872.106
409.828, 1006.536
410.310, 1126.008
410.792, 1245.048
411.274, 1365.406
411.756, 1493.999
412.238, 1662.313
412.720, 1898.539
413.203, 2160.996
413.685, 2391.767
414.167, 2594.901
414.649, 2792.730
415.131, 2993.000
415.613, 3200.643
416.095, 3421.786
416.577, 3666.310
417.060, 3904.667
417.542, 4115.922
418.024, 4305.835
418.506, 4492.371
418.988, 4676.502
419.470, 4860.215
419.952, 5041.336
420.434, 5220.928
420.916, 5400.303
421.398, 5596.081
421.881, 5786.135
422.363, 5952.504
422.845, 6066.359
423.327, 6183.213
423.809, 6324.471
424.291, 6484.744
424.773, 6618.639
425.255, 6716.788
425.738, 6795.364
426.220, 6858.108
426.702, 6872.310
427.184, 6937.505
427.666, 7083.265
428.148, 7264.358
428.630, 7390.027
429.112, 7431.754
429.595, 7489.607
430.077, 7604.187
430.559, 7774.941
431.041, 7912.659
431.523, 8009.030
432.005, 8100.604
432.487, 8239.638
432.969, 8424.052
433.451, 8564.090
433.934, 8626.211
434.416, 8648.323
434.898, 8712.375
435.380, 8816.498
435.862, 8929.929
436.344, 9028.272
436.826, 9122.470
437.308, 9239.542
437.790, 9387.123
438.273, 9537.068
438.755, 9652.102
439.237, 9748.416
439.719, 9857.882
440.201, 9986.585
440.683, 10139.246
441.165, 10334.434
441.647, 10568.788
442.129, 10786.359
442.612, 10933.021
443.094, 11061.228
443.576, 11216.712
444.058, 11450.904
444.540, 11649.718
445.022, 11765.792
445.504, 11827.072
445.987, 11910.492
446.469, 12049.218
446.951, 12196.524
447.433, 12331.401
447.915, 12439.344
448.397, 12579.025
448.879, 12772.070
449.361, 12974.129
449.843, 13136.007
450.326, 13244.280
450.808, 13351.104
451.290, 13465.674
451.772, 13585.574
452.254, 13704.696
452.736, 13827.047
453.218, 13938.026
453.700, 14008.418
454.182, 14041.652
454.665, 14129.960
455.147, 14295.720
455.629, 14477.600
456.111, 14579.913
456.593, 14604.993
457.075, 14596.128
457.557, 14546.035
458.039, 14478.136
458.522, 14462.691
459.004, 14504.544
459.486, 14549.143
459.968, 14567.292
460.450, 14550.069
460.932, 14503.331
461.414, 14414.845
461.896, 14304.242
462.379, 14163.635
462.861, 14010.227
463.343, 13886.727
463.825, 13842.074
464.307, 13804.631
464.789, 13741.139
465.271, 13646.685
465.753, 13527.818
466.235, 13303.433
466.717, 13095.631
467.200, 13015.841
467.682, 12726.819
468.164, 12612.391
468.646, 12455.952
469.128, 12260.186
469.610, 11905.551
470.092, 11758.627
470.574, 11528.543
471.057, 11339.551
471.539, 11018.200
472.021, 10735.212
472.503, 10485.293
472.985, 10271.720
473.467, 10105.818
473.949, 9987.418
474.431, 9878.050
474.914, 9799.263
475.396, 9705.661
475.878, 9441.648
476.360, 9014.288
476.842, 8592.167
477.324, 8312.507
477.806, 8125.179
478.288, 7937.614
478.770, 7730.752
479.253, 7539.341
479.735, 7397.504
480.217, 7293.180
480.699, 7201.081
481.181, 7108.948
481.663, 7026.566
482.145, 6965.966
482.627, 6926.841
483.109, 6865.778
483.592, 6766.700
484.074, 6647.358
484.556, 6519.000
485.038, 6359.609
485.520, 6206.452
486.002, 6070.077
486.484, 5942.937
486.966, 5802.411
487.448, 5647.495
487.931, 5480.372
488.413, 5303.551
488.895, 5115.436
489.377, 4914.775
489.859, 4708.674
490.341, 4485.989
490.823, 4222.832
491.306, 3917.332
491.788, 3661.529
492.270, 3484.990
492.752, 3347.494
493.234, 3177.334
493.716, 2978.156
494.198, 2762.650
494.680, 2525.278
495.162, 2283.355
495.645, 2076.194
496.127, 1902.541
496.609, 1750.767
497.091, 1615.182
497.573, 1491.549
498.055, 1374.710
498.537, 1275.514
499.019, 1166.094
499.501, 1014.900
499.984, 840.936
500.466, 688.557
500.948, 594.323
501.430, 509.264
501.912, 402.173
502.394, 258.884
502.876, 161.695
503.358, 156.061
503.841, 171.511
504.323, 147.100
504.805, 46.301
505.287, 25.379
505.769, 46.410
506.251, 35.000
506.733, 48.664
507.215, 93.332
507.698, 144.460
508.180, 101.020
508.662, 39.614
509.144, 26.514
509.626, 69.605
510.108, 115.209
510.590, 95.895
511.072, 29.966
511.554, 22.530
512.036, 43.175
512.519, 48.103
513.001, 54.925
513.483, 61.681
513.965, 61.993
514.447, 50.111
514.929, 32.276
515.411, 14.213
515.893, 2.950
516.375, 26.544
516.858, 67.083
517.340, 111.239
517.822, 102.711
518.304, 79.963
518.786, 61.601
519.268, 49.306
519.750, 40.747
520.232, 29.940
520.715, 16.142
521.197, 1.540
521.679, 10.987
522.161, 20.569
522.643, 44.898
523.125, 87.867
523.607, 136.474
524.089, 182.898
524.571, 226.794
525.054, 255.367
525.536, 265.915
526.018, 260.980
526.500, 225.086
526.982, 169.405
527.464, 132.595
527.946, 163.215
528.429, 177.297
528.911, 175.714
529.393, 111.902
529.875, 128.090
530.357, 111.973
530.839, 94.362
531.321, 103.602
531.803, 90.064
532.286, 88.510
532.768, 85.298
533.250, 78.400
533.732, 64.886
534.214, 33.847
534.696, 7.498
535.178, 7.029
535.660, 9.350
536.142, 17.232
536.625, 33.218
537.107, 50.540
537.589, 65.353
538.071, 57.324
538.553, 44.013
539.035, 28.904
539.517, 22.465
539.999, 50.343
540.481, 13.930
540.964, 31.164
541.446, 25.914
541.928, 8.125
542.410, 52.649
542.892, 151.408
543.374, 249.544
543.856, 312.886
544.338, 356.577
544.820, 388.986
545.303, 403.766
545.785, 442.486
546.267, 557.132
546.749, 694.597
547.231, 793.719
547.713, 799.394
548.195, 811.362
548.677, 848.757
549.159, 908.974
549.642, 978.271
550.124, 1061.736
550.606, 1148.353
551.088, 1241.154
551.570, 1344.506
552.052, 1403.325
552.534, 1401.415
553.016, 1394.196
553.499, 1440.638
553.981, 1537.537
554.463, 1647.127
554.945, 1769.338
555.427, 1887.131
555.909, 1957.398
556.391, 1995.103
556.873, 2058.811
557.356, 2207.919
557.838, 2378.678
558.320, 2506.865
558.802, 2591.957
559.284, 2666.654
559.766, 2734.625
560.248, 2807.481
560.730, 2895.535
561.213, 3004.363
561.695, 3117.342
562.177, 3259.896
562.659, 3395.934
563.141, 3466.370
563.623, 3390.937
564.105, 3379.199
564.587, 3489.527
565.069, 3691.391
565.552, 3839.202
566.034, 3925.252
566.516, 3996.601
566.998, 4074.505
567.480, 4158.439
567.962, 4256.933
568.444, 4373.041
568.926, 4480.479
569.408, 4546.517
569.891, 4579.808
570.373, 4571.815
570.855, 4643.037
571.337, 4694.510
571.819, 4726.946
572.301, 4685.863
572.783, 4740.642
573.265, 4758.576
573.747, 4776.100
574.230, 4847.523
574.712, 4821.935
575.194, 4893.985
575.676, 4930.727
576.158, 4987.876
576.640, 5000.481
577.122, 5039.249
577.604, 5091.754
578.086, 5169.184
578.569, 5248.232
579.051, 5286.692
579.533, 5277.100
580.015, 5295.779
580.497, 5375.966
580.979, 5488.361
581.461, 5549.164
581.943, 5563.538
582.426, 5591.339
582.908, 5692.352
583.390, 5818.380
583.872, 5899.257
584.354, 5931.301
584.836, 5952.015
585.318, 5977.083
585.800, 6012.336
586.282, 6050.755
586.765, 6079.966
587.247, 6129.178
587.729, 6240.081
588.211, 6369.865
588.693, 6439.572
589.175, 6386.885
589.657, 6357.830
590.140, 6387.580
590.622, 6468.565
591.104, 6533.715
591.586, 6588.949
592.068, 6621.394
592.550, 6615.571
593.032, 6571.910
593.514, 6545.840
593.996, 6539.868
594.479, 6537.183
594.961, 6527.598
595.443, 6509.509
595.925, 6480.474
596.407, 6439.995
596.889, 6389.250
597.371, 6324.582
597.853, 6250.853
598.335, 6183.685
598.818, 6114.874
599.300, 6055.912
599.782, 6021.933
600.264, 6016.572
600.746, 5992.174
601.228, 5941.827
601.710, 5873.042
602.192, 5784.036
602.674, 5663.454
603.157, 5570.354
603.639, 5515.106
604.121, 5472.248
604.603, 5408.948
605.085, 5324.789
605.567, 5247.473
606.049, 5189.561
606.531, 5132.585
607.013, 5040.227
607.496, 4920.232
607.978, 4803.631
608.460, 4695.059
608.942, 4609.958
609.424, 4580.156
609.906, 4587.518
610.388, 4557.932
610.870, 4417.255
611.353, 4255.158
611.835, 4122.958
612.317, 4021.189
612.799, 3976.406
613.281, 3828.827
613.763, 3778.628
614.245, 3698.815
614.727, 3594.123
615.209, 3393.989
615.692, 3311.553
616.174, 3227.224
616.656, 3116.174
617.138, 2980.709
617.620, 2870.527
618.102, 2835.749
618.584, 2821.301
619.067, 2714.881
619.549, 2528.608
620.031, 2339.755
620.513, 2174.827
620.995, 2042.549
621.477, 1962.684
621.959, 1944.759
622.441, 1920.239
622.923, 1860.757
623.406, 1786.379
623.888, 1714.129
624.370, 1647.818
624.852, 1577.934
625.334, 1493.785
625.816, 1412.479
626.298, 1377.295
626.780, 1408.020
627.263, 1386.733
627.745, 1259.014
628.227, 1073.060
628.709, 970.092
629.191, 945.090
629.673, 928.242
630.155, 879.832
630.637, 812.049
631.119, 738.968
631.602, 661.550
632.084, 587.839
632.566, 517.799
633.048, 456.874
633.530, 409.514
634.012, 378.190
634.494, 357.523
634.976, 352.404
635.458, 355.093
635.941, 359.355
636.423, 376.328
636.905, 370.782
637.387, 332.869
637.869, 271.572
638.351, 200.267
638.833, 115.902
639.315, 62.881
639.797, 74.272
640.280, 126.160
640.762, 177.171
641.244, 224.749
641.726, 236.059
642.208, 161.766
642.690, 56.221
643.172, 32.238
643.654, 7.975
644.137, 26.798
644.619, 27.785
645.101, 54.724
645.583, 55.569
646.065, 13.123
646.547, 54.035
647.029, 155.919
647.511, 185.297
647.994, 225.602
648.476, 134.285
648.958, 75.108
649.440, 46.333
649.922, 138.617
650.404, 74.812
650.886, 73.708
651.368, 75.282
651.851, 24.236
652.333, 7.388
652.815, 5.926
653.297, 22.276
653.779, 32.998
654.261, 21.730
654.743, 1.184
655.225, 23.697
655.707, 63.238
656.190, 76.737
656.672, 32.224
657.154, 21.047
657.636, 36.605
658.118, 3.855
658.600, 29.739
659.082, 30.249
659.564, 18.927
660.046, 15.177
660.529, 19.263
661.011, 42.499
661.493, 104.481
661.975, 172.664
662.457, 179.127
662.939, 141.503
663.421, 126.733
663.903, 200.127
664.385, 288.101
664.868, 331.233
665.350, 326.532
665.832, 352.028
666.314, 458.921
666.796, 575.627
667.278, 535.895
667.760, 529.157
668.242, 495.255
668.724, 423.403
