##NAMES=Mackayite
##RRUFFID=R060592
##IDEAL CHEMISTRY=Fe^3+^Te^4+^_2_O_5_(OH)
##LOCALITY=Lone Pine mine, Lone Pine Hill area, Wilcox District, Catron County, New Mexico, USA
##OWNER=RRUFF
##SOURCE=Michael Scott
##DESCRIPTION=Greenish-brown octahedral crystals associated with quartz
##STATUS=The identification of this mineral is confirmed by single-crystal X-ray diffraction and chemical analysis.
##URL=rruff.info/R060592
##MEASURED CHEMISTRY=(Fe^3+^_0.98_Al_0.02_)_Î£=1_Te^4+^_2.00_O_5_(OH) ; OH by difference and stoichiometry
113.809, 0.000
114.291, 44.269
114.773, 20.957
115.256, 1051.524
115.738, 2622.116
116.220, 4575.500
116.702, 6891.379
117.184, 9431.257
117.666, 12059.583
118.148, 14668.977
118.630, 17472.291
119.113, 20542.875
119.595, 23909.740
120.077, 27586.641
120.559, 31966.473
121.041, 36384.637
121.523, 40365.145
122.005, 44359.668
122.487, 47211.840
122.969, 47726.477
123.451, 46085.852
123.934, 43914.578
124.416, 40698.945
124.898, 37007.613
125.380, 33960.523
125.862, 32288.707
126.344, 31529.988
126.826, 30851.250
127.308, 30626.426
127.791, 30189.830
128.273, 28734.740
128.755, 26347.525
129.237, 23398.703
129.719, 19694.254
130.201, 15524.997
130.683, 11749.927
131.165, 8435.684
131.648, 5619.239
132.130, 3379.213
132.612, 1718.236
133.094, 453.244
133.576, 486.785
134.058, 638.218
134.540, 223.717
135.022, 7.204
135.504, 82.894
135.986, 101.605
136.469, 60.861
136.951, 33.728
137.433, 169.650
137.915, 343.244
138.397, 586.945
138.879, 870.800
139.361, 460.503
139.844, 4.893
140.326, 505.724
140.808, 1051.477
141.290, 1583.282
141.772, 2086.285
142.254, 2621.171
142.736, 3206.420
143.218, 3860.665
143.700, 4533.499
144.182, 5230.275
144.665, 5948.493
145.147, 6705.273
145.629, 7481.380
146.111, 8307.612
146.593, 9197.998
147.075, 10266.475
147.557, 11240.536
148.040, 12127.358
148.522, 12921.687
149.004, 13522.787
149.486, 14012.789
149.968, 14266.098
150.450, 14187.833
150.932, 13704.128
151.414, 12964.617
151.896, 11897.815
152.378, 10392.151
152.861, 9105.389
153.343, 8091.051
153.825, 7348.853
154.307, 6850.276
154.789, 6641.337
155.271, 6588.495
155.753, 6667.031
156.235, 6916.818
156.718, 7201.677
157.200, 7570.406
157.682, 7917.119
158.164, 8087.064
158.646, 8065.886
159.128, 7870.125
159.610, 7494.563
160.092, 6834.907
160.574, 6129.514
161.057, 5391.817
161.539, 4640.215
162.021, 3992.154
162.503, 3457.370
162.985, 3060.382
163.467, 2821.731
163.949, 2716.427
164.431, 2797.943
164.913, 3096.029
165.396, 3609.741
165.878, 4304.425
166.360, 5147.204
166.842, 6163.469
167.324, 7385.792
167.806, 8851.245
168.288, 10518.281
168.770, 12369.445
169.253, 14418.045
169.735, 16601.869
170.217, 18902.662
170.699, 21309.475
171.181, 23799.652
171.663, 26374.670
172.145, 29002.889
172.627, 31673.346
173.109, 34356.246
173.592, 37120.016
174.074, 40100.840
174.556, 43222.723
175.038, 46319.914
175.520, 49326.590
176.002, 52252.691
176.484, 55072.680
176.966, 57965.418
177.449, 60579.492
177.931, 62915.020
178.413, 64857.289
178.895, 65310.348
179.377, 63193.129
179.859, 58913.688
180.341, 53380.828
180.823, 46161.406
181.305, 38270.379
181.788, 31425.361
182.270, 25593.141
182.752, 20662.799
183.234, 16754.029
183.716, 13737.468
184.198, 11253.312
184.680, 9232.289
185.162, 7640.674
185.645, 6297.867
186.127, 5226.250
186.609, 4345.886
187.091, 3603.935
187.573, 2997.956
188.055, 2481.274
188.537, 2065.220
189.019, 1733.416
189.501, 1402.206
189.984, 1060.252
190.466, 742.056
190.948, 516.869
191.430, 351.790
191.912, 194.386
192.394, 56.699
192.876, 64.977
193.358, 177.966
193.840, 279.682
194.323, 325.743
194.805, 237.075
195.287, 162.449
195.769, 113.179
196.251, 100.860
196.733, 131.163
197.215, 155.470
197.697, 167.202
198.180, 191.787
198.662, 237.211
199.144, 304.755
199.626, 388.799
200.108, 437.109
200.590, 302.517
201.072, 182.690
201.554, 86.235
202.036, 11.107
202.519, 55.763
203.001, 112.024
203.483, 163.544
203.965, 224.719
204.447, 303.953
204.929, 344.477
205.411, 312.846
205.893, 211.358
206.376, 154.293
206.858, 138.112
207.340, 172.357
207.822, 273.970
208.304, 451.698
208.786, 674.061
209.268, 937.887
209.750, 1241.212
210.232, 1569.440
210.715, 1912.290
211.197, 2289.932
211.679, 2733.874
212.161, 3247.594
212.643, 3822.110
213.125, 4457.246
213.607, 5164.108
214.089, 5916.666
214.572, 6733.865
215.054, 7582.387
215.536, 8399.943
216.018, 9165.195
216.500, 9954.220
216.982, 10822.317
217.464, 11791.671
217.946, 12721.376
218.428, 13582.420
218.911, 14402.765
219.393, 15248.413
219.875, 16147.225
220.357, 17031.277
220.839, 17869.174
221.321, 18688.756
221.803, 19387.828
222.285, 19978.576
222.768, 20454.205
223.250, 20766.961
223.732, 20937.877
224.214, 20921.887
224.696, 20670.719
225.178, 20144.154
225.660, 19469.176
226.142, 18600.764
226.624, 17564.695
227.107, 16664.098
227.589, 15891.210
228.071, 15261.977
228.553, 14791.321
229.035, 14447.558
229.517, 14320.762
229.999, 14451.644
230.481, 14836.280
230.964, 15283.900
231.446, 15785.067
231.928, 16358.040
232.410, 17012.627
232.892, 17745.869
233.374, 18568.514
233.856, 19484.709
234.338, 20501.621
234.820, 21528.777
235.303, 22590.102
235.785, 23653.447
236.267, 24692.768
236.749, 25717.619
237.231, 26707.311
237.713, 27696.135
238.195, 28713.084
238.677, 29491.041
239.160, 30055.744
239.642, 30362.701
240.124, 30362.984
240.606, 30077.113
241.088, 29446.141
241.570, 28412.006
242.052, 26918.234
242.534, 25319.715
243.016, 23542.184
243.499, 21708.320
243.981, 19982.514
244.463, 18340.857
244.945, 16843.285
245.427, 15497.735
245.909, 14310.843
246.391, 13299.211
246.873, 12488.250
247.355, 11833.675
247.838, 11276.610
248.320, 10824.552
248.802, 10449.869
249.284, 10154.103
249.766, 9963.562
250.248, 9773.561
250.730, 9613.032
251.212, 9432.363
251.695, 9141.076
252.177, 8720.143
252.659, 8236.993
253.141, 7710.382
253.623, 7145.423
254.105, 6524.502
254.587, 5804.768
255.069, 5044.889
255.551, 4376.171
256.034, 3809.886
256.516, 3304.271
256.998, 2843.305
257.480, 2432.055
257.962, 2056.033
258.444, 1718.695
258.926, 1423.832
259.408, 1174.870
259.891, 975.789
260.373, 817.209
260.855, 695.169
261.337, 613.083
261.819, 556.908
262.301, 523.282
262.783, 501.593
263.265, 465.279
263.747, 413.326
264.229, 351.765
264.712, 282.097
265.194, 205.003
265.676, 121.414
266.158, 24.614
266.640, 74.930
267.122, 143.497
267.604, 171.715
268.086, 183.088
268.569, 185.056
269.051, 163.205
269.533, 99.808
270.015, 12.144
270.497, 87.488
270.979, 183.782
271.461, 281.415
271.943, 356.914
272.426, 387.367
272.908, 364.459
273.390, 375.568
273.872, 446.018
274.354, 540.916
274.836, 571.747
275.318, 526.310
275.800, 467.086
276.282, 431.799
276.765, 424.092
277.247, 405.286
277.729, 373.537
278.211, 329.657
278.693, 268.280
279.175, 184.517
279.657, 112.102
280.139, 86.965
280.621, 111.537
281.104, 85.540
281.586, 9.800
282.068, 22.765
282.550, 131.231
283.032, 222.058
283.514, 302.602
283.996, 374.686
284.478, 438.959
284.961, 502.259
285.443, 563.847
285.925, 628.169
286.407, 702.762
286.889, 788.429
287.371, 878.897
287.853, 961.140
288.335, 1040.527
288.818, 1162.521
289.300, 1342.019
289.782, 1539.669
290.264, 1665.167
290.746, 1724.214
291.228, 1810.985
291.710, 2011.390
292.192, 2290.263
292.674, 2513.878
293.156, 2657.790
293.639, 2776.549
294.121, 2943.590
294.603, 3155.304
295.085, 3393.418
295.567, 3652.803
296.049, 3930.131
296.531, 4222.737
297.013, 4531.409
297.496, 4861.271
297.978, 5224.489
298.460, 5616.688
298.942, 6026.010
299.424, 6442.409
299.906, 6870.656
300.388, 7339.014
300.870, 7852.854
301.353, 8368.848
301.835, 8798.980
302.317, 9176.005
302.799, 9632.409
303.281, 10485.681
303.763, 11359.211
304.245, 11676.796
304.727, 11331.813
305.209, 10789.315
305.691, 10422.466
306.174, 10172.181
306.656, 9910.014
307.138, 9578.281
307.620, 9201.717
308.102, 8806.227
308.584, 8392.834
309.066, 7952.698
309.548, 7478.224
310.031, 6972.209
310.513, 6430.286
310.995, 5790.999
311.477, 5151.488
311.959, 4587.800
312.441, 4110.671
312.923, 3649.126
313.405, 3166.573
313.888, 2676.850
314.370, 2206.417
314.852, 1736.493
315.334, 1301.276
315.816, 914.678
316.298, 577.269
316.780, 291.261
317.262, 84.603
317.744, 80.977
318.227, 241.889
318.709, 420.553
319.191, 486.780
319.673, 352.867
320.155, 239.150
320.637, 153.633
321.119, 101.613
321.601, 76.449
322.083, 72.425
322.566, 108.974
323.048, 142.775
323.530, 151.747
324.012, 138.563
324.494, 160.238
324.976, 245.837
325.458, 352.757
325.940, 453.278
326.422, 515.721
326.905, 600.725
327.387, 715.698
327.869, 715.057
328.351, 602.169
328.833, 479.614
329.315, 350.139
329.797, 214.080
330.280, 86.618
330.762, 74.241
331.244, 274.865
331.726, 506.961
332.208, 747.771
332.690, 996.669
333.172, 1269.833
333.654, 1580.097
334.136, 1947.592
334.618, 2302.137
335.101, 2618.580
335.583, 2940.018
336.065, 3378.610
336.547, 3983.689
337.029, 4613.615
337.511, 5156.069
337.993, 5542.033
338.475, 6181.986
338.958, 7141.762
339.440, 8283.248
339.922, 9395.792
340.404, 10527.510
340.886, 11446.667
341.368, 11973.157
341.850, 12094.877
342.332, 12411.235
342.815, 12945.696
343.297, 13600.091
343.779, 14244.197
344.261, 14885.111
344.743, 15514.975
345.225, 16182.182
345.707, 16847.199
346.189, 17343.957
346.671, 17655.125
347.154, 17860.580
347.636, 18042.213
348.118, 18191.129
348.600, 18270.951
349.082, 18279.453
349.564, 18203.840
350.046, 18001.514
350.528, 17671.426
351.010, 17284.787
351.493, 16879.336
351.975, 16463.424
352.457, 16048.312
352.939, 15629.941
353.421, 15225.629
353.903, 14848.885
354.385, 14502.172
354.867, 14197.151
355.349, 13933.501
355.832, 13721.063
356.314, 13565.435
356.796, 13446.338
357.278, 13426.032
357.760, 13567.752
358.242, 13849.346
358.724, 14206.525
359.207, 14604.975
359.689, 15067.862
360.171, 15618.354
360.653, 16275.505
361.135, 16978.033
361.617, 17664.914
362.099, 18383.480
362.581, 19210.094
363.063, 20242.311
363.546, 21334.777
364.028, 22421.346
364.510, 23485.301
364.992, 24581.572
365.474, 25731.576
365.956, 26919.152
366.438, 28125.010
366.920, 29337.959
367.402, 30590.221
367.885, 31918.973
368.367, 33347.434
368.849, 34698.293
369.331, 35949.906
369.813, 37125.805
370.295, 38247.871
370.777, 39345.473
371.259, 40332.715
371.741, 41220.691
372.224, 42002.992
372.706, 42613.250
373.188, 43042.145
373.670, 43298.395
374.152, 43386.984
374.634, 43310.988
375.116, 43043.410
375.598, 42560.863
376.081, 41879.074
376.563, 41035.820
377.045, 40025.785
377.527, 38899.570
378.009, 37629.730
378.491, 36230.855
378.973, 34835.707
379.455, 33473.777
379.938, 32098.830
380.420, 30650.166
380.902, 29117.643
381.384, 27590.609
381.866, 26092.469
382.348, 24624.193
382.830, 23153.914
383.312, 21681.631
383.794, 20232.771
384.276, 18858.758
384.759, 17541.871
385.241, 16266.601
385.723, 14989.102
386.205, 13783.210
386.687, 12772.566
387.169, 11953.034
387.651, 11205.628
388.134, 10486.008
388.616, 9772.459
389.098, 9017.145
389.580, 8146.880
390.062, 7313.692
390.544, 6659.418
391.026, 6149.460
391.508, 5692.063
391.990, 5231.662
392.473, 4812.248
392.955, 4469.239
393.437, 4236.668
393.919, 4029.619
394.401, 3796.257
394.883, 3569.614
395.365, 3412.222
395.847, 3393.803
396.329, 3403.538
396.812, 3397.863
397.294, 3366.826
397.776, 3344.054
398.258, 3301.102
398.740, 3283.434
399.222, 3341.189
399.704, 3530.603
400.186, 3727.998
400.668, 3913.591
401.151, 4085.958
401.633, 4257.623
402.115, 4418.982
402.597, 4594.688
403.079, 4799.067
403.561, 5019.483
404.043, 5302.976
404.525, 5663.035
405.008, 6086.221
405.490, 6513.412
405.972, 6929.708
406.454, 7401.939
406.936, 7981.342
407.418, 8674.024
407.900, 9389.644
408.382, 10126.537
408.865, 10888.106
409.347, 11666.060
409.829, 12450.526
410.311, 13309.972
410.793, 14285.923
411.275, 15367.360
411.757, 16466.295
412.239, 17577.898
412.721, 18699.779
413.203, 19812.170
413.686, 20936.057
414.168, 22092.441
414.650, 23286.602
415.132, 24513.197
415.614, 25797.654
416.096, 27115.080
416.578, 28390.334
417.060, 29542.500
417.543, 30634.268
418.025, 31699.568
418.507, 32775.555
418.989, 33801.141
419.471, 34783.141
419.953, 35694.676
420.435, 36503.750
420.917, 37200.535
421.400, 37784.016
421.882, 38262.652
422.364, 38661.531
422.846, 38859.090
423.328, 38774.879
423.810, 38501.070
424.292, 38145.707
424.774, 37783.965
425.256, 37266.129
425.738, 36537.285
426.221, 35604.840
426.703, 34653.266
427.185, 33727.531
427.667, 32730.854
428.149, 31587.244
428.631, 30215.775
429.113, 28920.172
429.595, 27720.639
430.078, 26592.949
430.560, 25490.064
431.042, 24415.719
431.524, 23336.902
432.006, 22228.361
432.488, 21092.625
432.970, 20038.082
433.452, 19078.000
433.935, 18154.332
434.417, 17197.398
434.899, 16218.165
435.381, 15272.936
435.863, 14386.718
436.345, 13554.889
436.827, 12777.528
437.309, 12053.256
437.791, 11352.707
438.274, 10658.244
438.756, 9977.572
439.238, 9325.189
439.720, 8699.352
440.202, 8111.143
440.684, 7576.214
441.166, 7085.722
441.648, 6615.854
442.130, 6158.396
442.613, 5721.439
443.095, 5306.201
443.577, 4912.673
444.059, 4541.856
444.541, 4197.479
445.023, 3875.010
445.505, 3566.721
445.987, 3288.325
446.470, 3016.066
446.952, 2730.595
447.434, 2433.865
447.916, 2203.160
448.398, 2090.455
448.880, 1992.758
449.362, 1850.719
449.844, 1645.271
450.327, 1436.554
450.809, 1207.412
451.291, 986.041
451.773, 841.340
452.255, 796.143
452.737, 742.903
453.219, 630.279
453.701, 459.786
454.183, 310.344
454.665, 180.253
455.148, 67.288
455.630, 31.839
456.112, 117.635
456.594, 190.120
457.076, 250.028
457.558, 296.752
458.040, 321.429
458.522, 327.524
459.005, 340.033
459.487, 376.616
459.969, 428.180
460.451, 485.967
460.933, 485.939
461.415, 403.721
461.897, 333.099
462.379, 268.868
462.862, 202.136
463.344, 99.985
463.826, 20.498
464.308, 11.226
464.790, 73.568
465.272, 105.238
465.754, 37.576
466.236, 46.076
466.718, 87.982
467.201, 3.531
467.683, 22.970
468.165, 67.254
468.647, 219.122
469.129, 275.134
469.611, 173.632
470.093, 70.288
470.575, 24.529
471.057, 45.864
471.540, 56.362
472.022, 53.319
472.504, 46.141
472.986, 49.515
473.468, 64.838
473.950, 67.107
474.432, 46.717
474.914, 11.334
475.397, 22.439
475.879, 55.181
476.361, 82.803
476.843, 97.918
477.325, 108.196
477.807, 130.539
478.289, 170.393
478.771, 207.869
479.254, 174.243
479.736, 146.158
480.218, 90.018
480.700, 22.472
481.182, 158.134
481.664, 286.044
482.146, 408.396
482.628, 558.240
483.110, 753.375
483.592, 975.299
484.075, 1214.365
484.557, 1510.936
485.039, 1757.448
485.521, 1879.298
486.003, 1944.021
486.485, 2109.744
486.967, 2459.667
487.449, 2810.913
487.931, 3101.098
488.414, 3316.361
488.896, 3573.933
489.378, 3898.743
489.860, 4235.215
490.342, 4521.118
490.824, 4743.042
491.306, 5035.007
491.789, 5437.922
492.271, 5912.023
492.753, 6374.535
493.235, 6829.357
493.717, 7289.739
494.199, 7752.707
494.681, 8238.059
495.163, 8814.157
495.645, 9475.753
496.128, 10153.182
496.610, 10768.489
497.092, 11360.914
497.574, 11966.464
498.056, 12621.438
498.538, 13285.736
499.020, 13910.845
499.502, 14522.616
499.984, 15190.508
500.467, 16023.712
500.949, 16873.057
501.431, 17642.508
501.913, 18311.348
502.395, 18972.623
502.877, 19604.354
503.359, 20251.211
503.841, 20959.105
504.323, 21797.754
504.806, 22583.982
505.288, 23266.377
505.770, 23857.160
506.252, 24489.729
506.734, 25192.385
507.216, 25855.469
507.698, 26388.029
508.181, 26786.311
508.663, 27212.170
509.145, 27696.158
509.627, 28145.957
510.109, 28469.633
510.591, 28665.748
511.073, 28731.670
511.555, 28635.262
512.037, 28432.590
512.519, 28211.680
513.002, 27967.996
513.484, 27651.273
513.966, 27193.316
514.448, 26659.373
514.930, 26124.111
515.412, 25621.906
515.894, 25051.938
516.376, 24342.494
516.859, 23537.127
517.341, 22709.623
517.823, 21861.414
518.305, 20998.928
518.787, 20108.666
519.269, 19193.889
519.751, 18325.488
520.233, 17507.107
520.716, 16722.326
521.198, 15973.501
521.680, 15266.852
522.162, 14561.489
522.644, 13853.812
523.126, 13161.815
523.608, 12522.265
524.090, 11934.945
524.572, 11366.789
525.055, 10804.321
525.537, 10256.831
526.019, 9745.720
526.501, 9266.413
526.983, 8809.217
527.465, 8387.445
527.947, 7988.212
528.429, 7567.680
528.911, 7111.188
529.394, 6673.644
529.876, 6308.438
530.358, 5987.910
530.840, 5660.312
531.322, 5294.528
531.804, 4932.546
532.286, 4597.631
532.768, 4291.109
533.250, 3974.197
533.733, 3611.677
534.215, 3261.934
534.697, 2961.984
535.179, 2738.543
535.661, 2500.736
536.143, 2238.468
536.625, 1970.072
537.107, 1734.470
537.589, 1540.713
538.072, 1333.681
538.554, 1089.695
539.036, 829.927
539.518, 653.270
540.000, 560.817
540.482, 487.865
540.964, 397.532
541.446, 293.264
541.929, 174.506
542.411, 35.840
542.893, 80.584
543.375, 112.173
543.857, 97.819
544.339, 103.830
544.821, 173.883
545.303, 180.160
545.786, 119.053
546.268, 73.725
546.750, 52.234
547.232, 93.899
547.714, 130.371
548.196, 120.856
548.678, 38.662
549.160, 1.906
549.643, 28.715
550.125, 81.618
550.607, 107.834
551.089, 84.086
551.571, 96.634
552.053, 164.856
552.535, 232.121
553.017, 140.091
553.499, 57.546
553.982, 33.454
554.464, 140.695
554.946, 263.970
555.428, 398.489
555.910, 544.416
556.392, 717.196
556.874, 952.371
557.356, 1220.423
557.838, 1469.514
558.321, 1674.002
558.803, 1888.849
559.285, 2154.990
559.767, 2461.577
560.249, 2781.874
560.731, 3107.065
561.213, 3447.205
561.695, 3798.153
562.177, 4159.243
562.660, 4578.896
563.142, 5097.970
563.624, 5633.575
564.106, 6136.955
564.588, 6558.500
565.070, 7059.468
565.552, 7672.010
566.034, 8324.499
566.516, 8908.117
566.999, 9418.411
567.481, 9965.126
567.963, 10599.439
568.445, 11280.601
568.927, 11956.221
569.409, 12620.244
569.891, 13274.219
570.373, 13906.928
570.856, 14529.383
571.338, 15153.896
571.820, 15794.352
572.302, 16387.418
572.784, 16885.832
573.266, 17332.367
573.748, 17780.820
574.230, 18299.029
574.713, 18754.027
575.195, 19127.783
575.677, 19414.062
576.159, 19597.029
576.641, 19651.154
577.123, 19643.242
577.605, 19601.656
578.087, 19528.191
578.570, 19341.312
579.052, 19024.639
579.534, 18634.035
580.016, 18220.707
580.498, 17782.477
580.980, 17267.719
581.462, 16661.480
581.944, 16015.431
582.426, 15405.005
582.909, 14808.776
583.391, 14178.211
583.873, 13465.748
584.355, 12738.432
584.837, 12063.806
585.319, 11430.061
585.801, 10789.993
586.283, 10097.936
586.765, 9402.938
587.248, 8715.529
587.730, 8023.707
588.212, 7419.381
588.694, 6975.596
589.176, 6585.424
589.658, 6160.616
590.140, 5668.939
590.622, 5215.460
591.104, 4811.821
591.587, 4449.261
592.069, 4119.901
592.551, 3824.518
593.033, 3537.159
593.515, 3237.423
593.997, 2943.405
594.479, 2722.117
594.961, 2570.080
595.443, 2428.359
595.926, 2243.663
596.408, 2044.711
596.890, 1874.302
597.372, 1742.956
597.854, 1615.716
598.336, 1458.175
598.818, 1297.589
599.300, 1171.212
599.783, 1114.592
600.265, 1058.235
600.747, 985.531
601.229, 901.560
601.711, 806.752
602.193, 672.996
602.675, 569.699
603.157, 533.528
603.640, 566.663
604.122, 597.523
604.604, 625.601
605.086, 661.079
605.568, 705.827
