##NAMES=Magnesio-fluoro-arfvedsonite
##RRUFFID=R050515
##IDEAL CHEMISTRY=NaNa_2_(Mg_4_Fe^3+^)Si_8_O_22_F_2_
##LOCALITY=unknown
##OWNER=RRUFF
##SOURCE=Frank Hawthorne
##DESCRIPTION=Numerous small dark green fragments
##STATUS=The identification of this mineral has been confirmed by X-ray diffraction and chemical analysis
##URL=rruff.info/R050515
##MEASURED CHEMISTRY=(Na_0.48_K_0.20_[box]_0.32_)(Na_1.50_Ca_0.50_)_Σ=2_(Mg_2.05_Fe^2+^_1.45_Mn_0.50_)_Σ=4_(Fe^3+^_0.80_Mn_0.05_Al_0.10_Ti_0.05_)(Si_0.97_Al_0.03_)_8_O_22_(F_0.65_(OH)_0.35_)_2_
143.9589, 0.0000000E+00
144.4410, 0.1237790
144.9231, 1.436584
145.4053, 4.145020
145.8874, 8.185486
146.3695, 14.02954
146.8516, 19.86053
147.3337, 25.04828
147.8158, 29.88184
148.2980, 33.54745
148.7801, 36.07947
149.2622, 37.47278
149.7443, 37.62772
150.2264, 36.05121
150.7085, 33.70340
151.1907, 30.86722
151.6728, 27.08801
152.1549, 23.50562
152.6370, 19.65271
153.1191, 15.92947
153.6012, 13.45166
154.0834, 13.81143
154.5655, 14.22980
155.0476, 13.50067
155.5297, 10.55499
156.0118, 7.725311
156.4939, 4.948151
156.9761, 2.411224
157.4582, 0.8663640
157.9403, 1.139435
158.4224, 2.000061
158.9045, 2.731995
159.3866, 2.854431
159.8688, 3.212524
160.3509, 4.027130
160.8330, 5.265259
161.3151, 6.775024
161.7972, 8.546631
162.2793, 10.54755
162.7615, 12.75839
163.2436, 15.74228
163.7257, 18.39737
164.2078, 19.98654
164.6899, 20.67493
165.1720, 21.64120
165.6541, 23.78284
166.1363, 26.34631
166.6184, 28.58847
167.1005, 30.17136
167.5826, 31.41968
168.0647, 32.59567
168.5468, 33.67990
169.0290, 34.40994
169.5111, 34.38574
169.9932, 33.96799
170.4753, 33.63300
170.9574, 34.18317
171.4395, 34.50552
171.9217, 33.46344
172.4038, 31.06372
172.8859, 28.43710
173.3680, 26.39502
173.8501, 24.73984
174.3322, 23.07385
174.8144, 21.04858
175.2965, 18.99997
175.7786, 17.41589
176.2607, 16.29266
176.7428, 15.36505
177.2249, 14.33481
177.7071, 13.31271
178.1892, 12.53772
178.6713, 12.53494
179.1534, 12.72366
179.6355, 11.94647
180.1176, 10.05566
180.5998, 8.092468
181.0819, 6.974030
181.5640, 6.647095
182.0461, 6.892853
182.5282, 8.217041
183.0103, 9.987183
183.4925, 10.52106
183.9746, 9.570923
184.4567, 8.327728
184.9388, 8.358093
185.4209, 9.481873
185.9030, 10.60709
186.3852, 11.33588
186.8673, 11.67166
187.3494, 11.44925
187.8315, 10.50522
188.3136, 9.579987
188.7957, 9.668610
189.2779, 10.73349
189.7600, 12.24158
190.2421, 14.19656
190.7242, 16.45963
191.2063, 18.18250
191.6884, 19.19174
192.1706, 19.96463
192.6527, 21.33853
193.1348, 23.31305
193.6169, 25.26358
194.0990, 26.89465
194.5811, 28.20728
195.0633, 29.34860
195.5454, 30.21829
196.0275, 31.10580
196.5096, 32.66443
196.9917, 34.97226
197.4738, 37.13736
197.9560, 38.74347
198.4381, 39.79330
198.9202, 40.37640
199.4023, 40.27579
199.8844, 40.04312
200.3665, 40.90753
200.8487, 43.04770
201.3308, 45.27084
201.8129, 46.76505
202.2950, 47.77982
202.7771, 48.78885
203.2592, 49.87354
203.7414, 50.88147
204.2235, 51.42273
204.7056, 51.34933
205.1877, 51.24225
205.6698, 51.45676
206.1519, 52.07266
206.6341, 52.40652
207.1162, 52.30630
207.5983, 52.02161
208.0804, 52.15875
208.5625, 52.83600
209.0446, 53.51196
209.5268, 54.01865
210.0089, 52.40677
210.4910, 55.00607
210.9731, 56.60031
211.4552, 57.12720
211.9373, 53.67957
212.4195, 55.18948
212.9016, 54.71967
213.3837, 54.17487
213.8658, 56.40439
214.3479, 53.45624
214.8300, 55.55258
215.3121, 55.53995
215.7943, 56.41446
216.2764, 55.25714
216.7585, 54.72092
217.2406, 56.20316
217.7227, 56.56958
218.2048, 53.99258
218.6870, 54.12958
219.1691, 54.43124
219.6512, 53.58951
220.1333, 50.78613
220.6154, 48.33170
221.0975, 47.36069
221.5797, 48.67621
222.0618, 49.13190
222.5439, 48.39969
223.0260, 46.97595
223.5081, 45.97668
223.9902, 45.71039
224.4724, 45.37103
224.9545, 44.61453
225.4366, 43.24631
225.9187, 42.01428
226.4008, 40.90912
226.8829, 39.94238
227.3651, 39.14145
227.8472, 38.57111
228.3293, 38.03799
228.8114, 37.46036
229.2935, 36.80557
229.7757, 36.21082
230.2578, 35.79214
230.7399, 35.37256
231.2220, 34.53436
231.7041, 32.91284
232.1862, 31.44852
232.6684, 30.51346
233.1505, 30.29459
233.6326, 29.99994
234.1147, 29.69849
234.5968, 29.28003
235.0789, 28.48331
235.5611, 26.89240
236.0432, 25.61594
236.5253, 25.17157
237.0074, 26.02023
237.4895, 26.01578
237.9716, 24.74103
238.4538, 22.87363
238.9359, 21.53067
239.4180, 21.03714
239.9001, 20.51703
240.3822, 19.65375
240.8643, 18.33215
241.3465, 17.24811
241.8286, 16.42023
242.3107, 15.81409
242.7928, 15.42993
243.2749, 15.51288
243.7570, 15.38751
244.2392, 14.85480
244.7213, 13.86322
245.2034, 12.70776
245.6855, 11.16922
246.1676, 9.641235
246.6497, 8.622559
247.1319, 8.247589
247.6140, 8.163879
248.0961, 8.412781
248.5782, 9.075745
249.0603, 9.343140
249.5424, 9.127716
250.0246, 8.612915
250.5067, 7.976837
250.9888, 7.180603
251.4709, 6.334900
251.9530, 5.414825
252.4351, 4.396332
252.9173, 3.532837
253.3994, 2.631439
253.8815, 2.059509
254.3636, 2.337738
254.8457, 4.145416
255.3278, 5.240021
255.8100, 4.943939
256.2921, 3.300720
256.7742, 2.366638
257.2563, 2.466125
257.7384, 2.836609
258.2205, 2.864899
258.7026, 2.507202
259.1848, 1.914825
259.6669, 1.036652
260.1490, 1.331146
260.6311, 1.027954
261.1132, 1.802368
261.5953, 2.381744
262.0775, 2.702484
262.5596, 2.673279
263.0417, 2.653442
263.5238, 2.679688
264.0059, 2.749725
264.4880, 2.864594
264.9702, 3.061798
265.4523, 3.245300
265.9344, 3.278687
266.4165, 3.012390
266.8986, 3.254608
267.3807, 4.424438
267.8629, 6.023560
268.3450, 6.268219
268.8271, 4.647736
269.3092, 2.925293
269.7913, 2.127411
270.2734, 2.500641
270.7556, 2.576538
271.2377, 2.264862
271.7198, 1.617767
272.2019, 0.6774600
272.6840, 0.6775210
273.1661, 1.945587
273.6483, 2.818542
274.1304, 3.220886
274.6125, 3.819885
275.0946, 4.615265
275.5767, 5.602936
276.0588, 6.895630
276.5410, 8.584564
277.0231, 10.02386
277.5052, 10.73193
277.9873, 10.68243
278.4694, 11.23727
278.9515, 12.57227
279.4337, 14.10535
279.9158, 14.98303
280.3979, 15.14511
280.8800, 15.21390
281.3621, 15.34579
281.8442, 15.55478
282.3264, 16.03232
282.8085, 16.86359
283.2906, 17.70377
283.7727, 18.09576
284.2548, 18.04144
284.7369, 18.01871
285.2191, 18.07797
285.7012, 18.29196
286.1833, 19.03461
286.6654, 20.36084
287.1475, 21.86325
287.6296, 23.19153
288.1118, 24.35382
288.5939, 25.37961
289.0760, 26.25516
289.5581, 27.00421
290.0402, 27.67136
290.5223, 28.25226
291.0045, 28.85901
291.4866, 29.63675
291.9687, 30.53772
292.4508, 31.36758
292.9329, 32.15140
293.4150, 32.76443
293.8972, 32.85205
294.3793, 32.46960
294.8614, 32.21848
295.3435, 32.68347
295.8256, 33.60455
296.3077, 34.23276
296.7899, 34.43243
297.2720, 34.45148
297.7541, 34.50107
298.2362, 34.61359
298.7183, 34.93579
299.2004, 35.87238
299.6826, 37.00098
300.1647, 37.43207
300.6468, 37.00369
301.1289, 36.43564
301.6110, 36.56747
302.0931, 37.15408
302.5753, 37.56091
303.0574, 37.28558
303.5395, 36.74823
304.0216, 36.40488
304.5037, 36.26068
304.9858, 36.47153
305.4680, 37.68973
305.9501, 39.29083
306.4322, 40.18604
306.9143, 39.21393
307.3964, 37.94675
307.8785, 38.03772
308.3607, 39.35364
308.8428, 40.57544
309.3249, 40.46371
309.8070, 39.90094
310.2891, 39.99432
310.7712, 41.73270
311.2534, 43.33102
311.7355, 43.28595
312.2176, 41.96552
312.6997, 40.74991
313.1818, 40.18643
313.6639, 40.14227
314.1461, 40.63953
314.6282, 42.04733
315.1103, 43.18445
315.5924, 43.46634
316.0745, 43.05350
316.5566, 42.27719
317.0388, 41.00220
317.5209, 39.58218
318.0030, 38.17471
318.4851, 36.80414
318.9672, 35.45291
319.4493, 34.09927
319.9315, 32.80222
320.4136, 31.62411
320.8957, 30.85254
321.3778, 29.96356
321.8599, 28.55307
322.3420, 26.51096
322.8242, 25.04446
323.3063, 25.16785
323.7884, 25.61948
324.2705, 25.30862
324.7526, 23.04688
325.2347, 20.96078
325.7169, 19.63531
326.1990, 19.07010
326.6811, 18.38217
327.1632, 17.33887
327.6453, 16.21249
328.1274, 15.11719
328.6096, 13.94528
329.0917, 13.00229
329.5738, 12.38226
330.0559, 12.04504
330.5380, 11.83459
331.0201, 11.92627
331.5023, 11.86383
331.9844, 11.41675
332.4665, 10.33517
332.9486, 9.496460
333.4307, 9.102600
333.9128, 8.848785
334.3950, 8.143951
334.8771, 6.511261
335.3592, 5.308197
335.8413, 5.002716
336.3234, 5.659882
336.8055, 6.557983
337.2877, 7.856659
337.7698, 9.158752
338.2519, 10.02075
338.7340, 10.35309
339.2161, 10.54782
339.6982, 10.61804
340.1803, 10.61060
340.6624, 10.81949
341.1446, 11.27362
341.6267, 11.86423
342.1088, 12.56537
342.5909, 13.37756
343.0730, 14.15955
343.5551, 14.95795
344.0373, 15.62735
344.5194, 13.89456
345.0015, 16.70667
345.4836, 18.49500
345.9657, 19.31439
346.4478, 16.26157
346.9300, 18.21088
347.4121, 18.15686
347.8942, 18.02139
348.3763, 20.67697
348.8584, 18.19116
349.3405, 20.80374
349.8227, 21.38193
350.3048, 22.89224
350.7869, 22.38666
351.2690, 22.50455
351.7511, 24.64029
352.2332, 25.65952
352.7154, 24.92407
353.1975, 26.49731
353.6796, 26.81500
354.1617, 25.01749
354.6438, 27.64941
355.1259, 27.01898
355.6081, 26.02139
356.0902, 26.07907
356.5723, 26.32855
357.0544, 26.80920
357.5365, 27.60837
358.0186, 28.40738
358.5008, 29.03897
358.9829, 29.50308
359.4650, 29.80551
359.9471, 30.21716
360.4292, 30.27563
360.9113, 29.41586
361.3935, 27.41321
361.8756, 25.89911
362.3577, 25.83395
362.8398, 26.52194
363.3219, 27.17114
363.8040, 28.20071
364.2862, 28.55499
364.7683, 27.45569
365.2504, 25.00159
365.7325, 23.17679
366.2146, 22.96960
366.6967, 23.12039
367.1789, 22.84653
367.6610, 21.15710
368.1431, 20.12030
368.6252, 20.43820
369.1073, 21.58344
369.5894, 21.87527
370.0716, 20.55182
370.5537, 19.15762
371.0358, 18.22836
371.5179, 17.92056
372.0000, 17.59531
372.4821, 17.24722
372.9643, 16.88324
373.4464, 16.50690
373.9285, 16.09280
374.4106, 15.71747
374.8927, 15.41248
375.3748, 15.16748
375.8570, 14.83746
376.3391, 14.38782
376.8212, 13.90494
377.3033, 13.40939
377.7854, 12.87656
378.2675, 12.56589
378.7497, 12.59348
379.2318, 12.78641
379.7139, 12.77600
380.1960, 12.57904
380.6781, 12.03497
381.1602, 10.78531
381.6424, 9.003662
382.1245, 7.783936
382.6066, 7.192230
383.0887, 7.069031
383.5708, 7.468842
384.0529, 8.253632
384.5351, 8.760040
385.0172, 8.719421
385.4993, 8.237122
385.9814, 7.356232
386.4635, 6.063751
386.9456, 4.748627
387.4278, 3.623016
387.9099, 2.753387
388.3920, 2.221954
388.8741, 2.105133
389.3562, 2.209259
389.8383, 2.350739
390.3205, 2.535797
390.8026, 2.871033
391.2847, 3.876465
391.7668, 4.860626
392.2489, 5.122467
392.7310, 4.361725
393.2132, 3.656891
393.6953, 3.627106
394.1774, 3.962769
394.6595, 4.259918
395.1416, 4.302521
395.6237, 4.335419
396.1059, 4.575348
396.5880, 5.005615
397.0701, 5.089752
397.5522, 4.266449
398.0343, 3.382690
398.5164, 2.972717
398.9986, 3.215424
399.4807, 3.749084
399.9628, 5.012085
400.4449, 6.452148
400.9270, 6.811096
401.4091, 5.064941
401.8913, 3.665710
402.3734, 3.385223
402.8555, 4.400513
403.3376, 5.500183
403.8197, 6.920990
404.3018, 8.217163
404.7840, 8.799103
405.2661, 8.413361
405.7482, 8.096588
406.2303, 8.009949
406.7124, 8.155457
407.1945, 8.503571
407.6767, 9.135010
408.1588, 9.734863
408.6409, 9.896240
409.1230, 9.718201
409.6051, 9.953674
410.0872, 10.74567
410.5694, 11.77310
411.0515, 12.52316
411.5336, 13.01770
412.0157, 13.45172
412.4978, 13.99384
412.9799, 14.52313
413.4621, 14.54877
413.9442, 14.12964
414.4263, 13.99173
414.9084, 15.04843
415.3905, 16.73706
415.8727, 18.09387
416.3548, 18.89804
416.8369, 19.26773
417.3190, 18.99545
417.8011, 18.33008
418.2832, 17.93362
418.7654, 18.66138
419.2475, 19.39563
419.7296, 19.15482
420.2117, 17.62143
420.6938, 16.51636
421.1759, 16.64270
421.6581, 17.48621
422.1402, 18.50754
422.6223, 20.26434
423.1044, 21.45474
423.5865, 21.58109
424.0686, 20.75330
424.5508, 19.84558
425.0329, 18.64719
425.5150, 17.62772
425.9971, 17.04459
426.4792, 17.28812
426.9613, 17.16086
427.4435, 16.47461
427.9256, 15.53143
428.4077, 14.79556
428.8898, 14.27805
429.3719, 13.95251
429.8540, 13.95523
430.3362, 14.22977
430.8183, 13.79904
431.3004, 12.46750
431.7825, 10.99960
432.2646, 10.13110
432.7467, 9.867676
433.2289, 9.188995
433.7110, 7.800720
434.1931, 6.236786
434.6752, 5.613129
435.1573, 5.846893
435.6394, 6.050446
436.1216, 5.600189
436.6036, 4.816711
437.0858, 4.503143
437.5679, 4.682953
438.0500, 4.861328
438.5321, 4.534668
439.0142, 3.924194
439.4963, 3.411163
439.9785, 3.174438
440.4606, 2.982788
440.9427, 2.736237
441.4248, 2.406158
441.9069, 1.901123
442.3890, 1.504425
442.8712, 1.045854
443.3533, 0.6178590
443.8354, 0.3627930
444.3175, 0.1730960
444.7996, 0.4094240
445.2817, 0.7997740
445.7639, 1.064240
446.2460, 1.170044
446.7281, 1.139252
447.2102, 0.7435610
447.6923, 0.1068120
448.1744, 9.5367000E-02
448.6566, 1.406403
449.1387, 2.629883
449.6208, 3.092926
450.1029, 2.473053
450.5850, 2.111938
451.0671, 2.158478
451.5493, 2.314453
452.0314, 2.130676
452.5135, 1.531860
452.9956, 0.8885800
453.4777, 0.2147220
453.9598, 0.4157100
454.4420, 0.6577450
454.9241, 0.4953610
455.4062, 0.1032100
455.8883, 0.6515500
456.3704, 1.594940
456.8525, 1.759247
457.3347, 0.8702090
457.8168, 0.1726990
458.2989, 4.6417002E-02
458.7810, 0.8813780
459.2631, 1.521057
459.7452, 1.048370
460.2274, 0.2590940
460.7095, 9.7075999E-02
461.1916, 0.4833370
461.6737, 0.8310240
462.1558, 0.8171690
462.6379, 0.5866700
463.1201, 0.2146300
463.6022, 0.4492490
464.0843, 0.8537290
464.5664, 0.3920290
465.0485, 0.4025880
465.5306, 0.6780700
466.0128, 0.5780640
466.4949, 0.5841666
466.9770, 0.4534717
467.4591, 0.5955510
467.9412, 0.1034240
468.4233, 0.4353640
468.9055, 0.5016170
469.3876, 0.3026120
469.8697, 0.5045170
470.3518, 0.7800290
470.8339, 0.1631770
471.3160, 0.7401120
471.7982, 0.6462100
472.2803, 0.7749630
472.7624, 1.867554
473.2445, 1.957062
473.7266, 1.229828
474.2087, 0.7413640
474.6909, 0.4927060
475.1730, 0.4466250
475.6551, 0.4681090
476.1372, 0.6376340
476.6193, 1.469879
477.1014, 3.236755
477.5836, 5.023041
478.0657, 5.598999
478.5478, 5.248566
479.0299, 4.789459
479.5120, 4.444275
479.9941, 4.269989
480.4763, 4.391541
480.9584, 4.784882
481.4405, 5.200531
481.9226, 5.648132
482.4047, 5.982025
482.8868, 6.023529
483.3690, 5.459900
483.8511, 5.191986
484.3332, 5.678802
484.8153, 6.581848
485.2974, 7.357300
485.7795, 7.946777
486.2617, 8.368439
486.7438, 8.462311
487.2259, 8.245087
487.7080, 8.598450
488.1901, 8.094269
488.6722, 11.10730
489.1544, 13.09616
489.6365, 14.11578
490.1186, 11.26239
490.6007, 13.41083
491.0828, 13.55521
491.5649, 13.61795
492.0471, 16.47156
492.5292, 14.18353
493.0113, 16.99326
493.4934, 17.76831
493.9755, 19.47467
494.4576, 19.16443
494.9398, 19.47717
495.4219, 21.80695
495.9040, 23.01956
496.3861, 22.47653
496.8682, 21.79654
497.3503, 21.97147
497.8325, 22.37094
498.3146, 22.94128
498.7967, 23.60815
499.2788, 24.61142
499.7609, 25.45819
500.2430, 25.71182
500.7252, 25.53870
501.2073, 25.66754
501.6894, 26.52420
502.1715, 27.64377
502.6536, 28.91541
503.1357, 30.60873
503.6179, 31.57837
504.1000, 31.23105
504.5821, 30.55588
505.0642, 30.56830
505.5463, 31.59372
506.0284, 32.56744
506.5106, 33.18466
506.9927, 33.58286
507.4748, 34.30325
507.9569, 35.48065
508.4390, 36.67471
508.9211, 37.64777
509.4033, 38.40948
509.8854, 39.14307
510.3675, 39.87689
510.8496, 40.57910
511.3317, 41.19781
511.8138, 41.74738
512.2960, 42.25903
512.7781, 42.72369
513.2602, 43.21106
513.7423, 43.74307
514.2244, 44.31412
514.7065, 44.98511
515.1887, 46.18262
515.6708, 47.28467
516.1529, 47.61356
516.6350, 47.13678
517.1171, 46.86682
517.5992, 47.26584
518.0814, 48.04968
518.5635, 49.02075
519.0456, 50.52826
519.5277, 51.51752
520.0098, 51.60312
520.4919, 51.33310
520.9741, 51.47275
521.4562, 52.01822
521.9383, 53.00266
522.4204, 54.59818
522.9025, 56.61865
523.3846, 58.07660
523.8668, 58.90906
524.3489, 59.76230
524.8310, 61.15939
525.3131, 63.01440
525.7952, 64.59625
526.2773, 65.87790
526.7595, 66.99969
527.2416, 67.98209
527.7237, 68.94565
528.2058, 70.17313
528.6879, 72.06607
529.1700, 73.71082
529.6522, 73.75830
530.1343, 72.89740
530.6164, 72.88193
531.0985, 75.53369
531.5806, 78.57608
532.0627, 80.50632
532.5449, 81.14371
533.0270, 81.93991
533.5091, 83.54498
533.9912, 85.28802
534.4733, 86.67523
534.9554, 87.51923
535.4376, 88.19305
535.9197, 88.47055
536.4018, 88.67398
536.8839, 89.45667
537.3660, 91.18076
537.8481, 92.49197
538.3303, 92.93491
538.8124, 92.67358
539.2945, 92.60699
539.7766, 92.75687
540.2587, 92.94800
540.7408, 93.06497
541.2230, 93.12967
541.7051, 93.36819
542.1872, 93.87170
542.6693, 93.95343
543.1514, 92.35986
543.6335, 89.95706
544.1157, 88.35925
544.5978, 88.75397
545.0799, 89.24863
545.5620, 88.19186
546.0441, 86.15942
546.5262, 84.59473
547.0084, 84.58136
547.4905, 84.64374
547.9726, 84.14267
548.4547, 82.99701
548.9368, 81.84177
549.4189, 80.55325
549.9011, 79.36426
550.3832, 78.41357
550.8653, 77.79187
551.3474, 77.23926
551.8295, 76.87225
552.3116, 76.43863
552.7938, 75.45117
553.2759, 73.83389
553.7580, 72.47202
554.2401, 71.75031
554.7222, 71.30951
555.2043, 70.22028
555.6865, 68.53979
556.1686, 66.67831
556.6507, 64.55795
557.1328, 62.55551
557.6149, 61.35132
558.0970, 60.99304
558.5792, 60.69373
559.0613, 59.84589
559.5434, 58.81570
560.0255, 57.98853
560.5076, 57.56506
560.9897, 57.11011
561.4719, 56.37332
561.9540, 55.56604
562.4361, 55.00742
562.9182, 55.01593
563.4003, 54.94797
563.8824, 54.62552
564.3646, 54.10941
564.8467, 53.82040
565.3288, 53.84677
565.8109, 53.83990
566.2930, 53.76242
566.7751, 52.49011
567.2573, 53.19403
567.7394, 53.40314
568.2215, 51.84546
568.7036, 52.40219
569.1857, 52.00836
569.6678, 51.50507
570.1500, 52.14920
570.6321, 50.47122
571.1142, 50.95102
571.5963, 50.46841
572.0784, 50.32135
572.5605, 49.22006
573.0427, 49.30392
573.5248, 48.65399
574.0069, 49.25079
574.4890, 47.99432
574.9711, 48.30881
575.4532, 48.65561
575.9354, 48.19443
576.4175, 46.56094
576.8996, 45.28796
577.3817, 44.51352
577.8638, 43.97842
578.3459, 43.46490
578.8281, 42.98993
579.3102, 42.52234
579.7923, 42.14304
580.2744, 41.63754
580.7565, 40.49863
581.2386, 38.75903
581.7208, 37.05661
582.2029, 35.74670
582.6850, 34.52542
583.1671, 32.61691
583.6492, 30.15808
584.1313, 27.97058
584.6134, 26.75964
585.0955, 25.93155
585.5776, 24.90390
586.0598, 23.58768
586.5419, 22.38361
587.0240, 21.80753
587.5061, 21.21188
587.9882, 20.04633
588.4703, 17.43420
588.9525, 15.36203
589.4346, 14.22186
589.9167, 13.51993
590.3988, 12.40695
590.8809, 10.61932
591.3630, 9.114716
591.8452, 8.130829
592.3273, 7.577179
592.8094, 7.190033
593.2915, 6.978607
593.7736, 6.724731
594.2557, 6.242615
594.7379, 5.629547
595.2200, 5.192719
595.7021, 4.942474
596.1842, 4.579773
596.6663, 3.718048
597.1484, 2.675476
597.6306, 1.824554
598.1127, 1.270294
598.5948, 0.8886720
599.0769, 0.6208190
599.5590, 0.5015870
600.0411, 0.5744320
600.5233, 1.473175
601.0054, 1.827789
601.4875, 1.172882
601.9696, 1.914778
602.4517, 1.277405
602.9338, 2.240570
603.4160, 2.787109
603.8981, 2.663269
604.3802, 1.971039
604.8623, 1.851257
605.3444, 2.372894
605.8265, 2.914337
606.3087, 3.000854
606.7908, 2.742371
607.2729, 2.395813
607.7550, 1.969208
608.2371, 1.599121
608.7192, 1.487671
609.2014, 1.480804
609.6835, 1.346619
610.1656, 0.9168700
610.6477, 0.5314030
