##NAMES=Manaksite
##RRUFFID=R060693
##IDEAL CHEMISTRY=KNaMn^2+^Si_4_O_10_
##LOCALITY=Palitra pegmatite, Kedykverpakhk Mountain, Lovozero massif, Kola Peninsula, Russia
##OWNER=RRUFF
##SOURCE=Michael Scott
##DESCRIPTION=Pale brown massive associated with grayish-green bario-olgite, R060614, purple ussingite and colorless serandite
##STATUS=The identification of this mineral is confirmed by single-crystal X-ray diffraction and chemical analysis.
##URL=rruff.info/R060693
##MEASURED CHEMISTRY=(K_0.98_Na_0.02_)_Σ=1_Na_1.00_(Mn^2+^_0.78_Fe^2+^_0.21_Mg_0.01_)_Σ=1_Si_4.00_O_10_
146.4391, 7.8612998E-02
146.9212, 3.5659999E-02
147.4033, 0.6454470
147.8854, 1.435989
148.3675, 2.142792
148.8497, 2.933456
149.3318, 3.713867
149.8139, 4.482635
150.2960, 5.361481
150.7781, 6.209442
151.2602, 7.226471
151.7424, 8.502838
152.2245, 10.19977
152.7066, 11.94058
153.1887, 13.62503
153.6708, 15.25311
154.1529, 17.09747
154.6351, 19.32806
155.1172, 21.70827
155.5993, 24.07352
156.0814, 26.79405
156.5635, 29.12492
157.0456, 30.55879
157.5278, 31.08447
158.0099, 32.33395
158.4920, 34.99998
158.9741, 38.36748
159.4562, 41.80766
159.9383, 45.35616
160.4205, 48.79218
160.9026, 51.93979
161.3847, 54.76862
161.8668, 57.79330
162.3489, 61.31416
162.8310, 65.10861
163.3132, 68.91689
163.7953, 72.81798
164.2774, 76.58012
164.7595, 80.04703
165.2416, 83.17984
165.7237, 86.14854
166.2059, 89.23375
166.6880, 92.20567
167.1701, 94.71527
167.6522, 97.03317
168.1343, 98.57153
168.6164, 98.91936
169.0986, 98.00566
169.5807, 96.01360
170.0628, 93.29840
170.5449, 89.61598
171.0270, 84.48798
171.5091, 76.48755
171.9913, 67.52104
172.4734, 59.39021
172.9555, 52.37393
173.4376, 45.97487
173.9197, 39.76587
174.4018, 33.80278
174.8840, 28.29898
175.3661, 23.45265
175.8482, 19.15750
176.3303, 15.30183
176.8124, 11.84213
177.2945, 8.853088
177.7767, 6.475067
178.2588, 4.682816
178.7409, 3.395737
179.2230, 2.733139
179.7051, 2.477768
180.1872, 2.294083
180.6694, 2.021240
181.1515, 1.719162
181.6336, 1.946548
182.1157, 2.580704
182.5978, 3.018555
183.0799, 2.640030
183.5621, 1.686172
184.0442, 1.163620
184.5263, 1.497772
185.0084, 2.256180
185.4905, 2.733551
185.9726, 2.941849
186.4547, 3.089554
186.9369, 3.287613
187.4190, 3.548401
187.9011, 3.943237
188.3832, 4.585236
188.8653, 5.286713
189.3474, 5.607727
189.8296, 5.544067
190.3117, 5.341797
190.7938, 5.116058
191.2759, 4.890152
191.7580, 4.860443
192.2401, 5.133362
192.7223, 5.597687
193.2044, 5.978745
193.6865, 6.290634
194.1686, 6.431366
194.6507, 6.218201
195.1328, 5.669586
195.6150, 5.179886
196.0971, 4.806656
196.5792, 4.567413
197.0613, 4.616592
197.5434, 5.013733
198.0255, 5.407608
198.5077, 5.357651
198.9898, 4.837662
199.4719, 4.520386
199.9540, 4.695450
200.4361, 5.211731
200.9182, 5.170273
201.4004, 4.444046
201.8825, 3.550217
202.3646, 3.005630
202.8467, 2.849197
203.3288, 2.773727
203.8109, 2.745056
204.2931, 2.752014
204.7752, 2.593948
205.2573, 2.218231
205.7394, 1.774384
206.2215, 1.385788
206.7036, 1.039841
207.1858, 0.8361050
207.6679, 0.8529050
208.1500, 1.067276
208.6321, 1.126923
209.1142, 0.9995570
209.5963, 0.7764590
210.0785, 0.5453950
210.5606, 0.3058620
211.0427, 6.4896002E-02
211.5248, 0.1773990
212.0069, 0.4205020
212.4890, 0.6584010
212.9712, 0.8714900
213.4533, 1.109772
213.9354, 1.465408
214.4175, 2.033676
214.8996, 2.434006
215.3817, 2.530869
215.8639, 2.322937
216.3460, 2.241547
216.8281, 2.363754
217.3102, 2.512558
217.7923, 2.481003
218.2744, 2.211731
218.7566, 1.915283
219.2387, 1.663406
219.7208, 1.458847
220.2029, 1.116776
220.6850, 0.5796360
221.1671, 2.2384999E-02
221.6493, 0.5311130
222.1314, 0.9035190
222.6135, 1.289383
223.0956, 1.696487
223.5777, 2.126572
224.0598, 2.669342
224.5420, 3.348022
225.0241, 4.118530
225.5062, 4.933838
225.9883, 5.730545
226.4704, 6.699173
226.9525, 7.893250
227.4347, 9.337784
227.9168, 10.78490
228.3989, 12.31593
228.8810, 13.76344
229.3631, 14.90703
229.8452, 15.61185
230.3274, 16.31415
230.8095, 17.18651
231.2916, 18.25145
231.7737, 18.85770
232.2558, 18.86786
232.7379, 18.56429
233.2201, 18.25589
233.7022, 18.13058
234.1843, 17.62126
234.6664, 16.46872
235.1485, 14.67030
235.6306, 13.25154
236.1128, 12.45554
236.5949, 11.77065
237.0770, 10.65530
237.5591, 8.725784
238.0412, 7.113525
238.5233, 6.073532
239.0055, 5.603485
239.4876, 5.244095
239.9697, 5.080505
240.4518, 4.934586
240.9339, 4.602173
241.4160, 3.817459
241.8982, 3.387375
242.3803, 3.570053
242.8624, 4.343826
243.3445, 4.868790
243.8266, 5.026474
244.3087, 5.092148
244.7909, 5.289810
245.2730, 5.631104
245.7551, 5.965912
246.2372, 6.220047
246.7193, 6.429321
247.2014, 6.977615
247.6836, 7.953079
248.1657, 9.112701
248.6478, 10.28625
249.1299, 11.45207
249.6120, 12.77858
250.0941, 14.34473
250.5762, 16.04320
251.0584, 17.23656
251.5405, 17.69554
252.0226, 18.02014
252.5047, 18.66058
252.9868, 19.84627
253.4689, 20.87646
253.9511, 21.62794
254.4332, 22.09854
254.9153, 22.39194
255.3974, 22.50888
255.8795, 22.50117
256.3617, 22.40050
256.8438, 22.21590
257.3259, 21.91463
257.8080, 21.45178
258.2901, 20.87508
258.7722, 20.33063
259.2544, 19.74321
259.7365, 19.30975
260.2186, 19.16516
260.7007, 19.42252
261.1828, 19.60902
261.6649, 19.63409
262.1471, 19.58760
262.6292, 19.75618
263.1113, 20.18950
263.5934, 20.72792
264.0755, 21.29074
264.5576, 21.87383
265.0398, 22.51326
265.5219, 23.23610
266.0040, 24.00653
266.4861, 24.72165
266.9682, 25.28712
267.4503, 26.02022
267.9325, 27.13557
268.4146, 28.80641
268.8967, 30.07729
269.3788, 30.77467
269.8609, 31.24605
270.3430, 32.25378
270.8252, 34.06050
271.3073, 35.52650
271.7894, 36.03055
272.2715, 35.45407
272.7536, 35.08852
273.2357, 35.00180
273.7179, 35.08900
274.2000, 35.14503
274.6821, 35.12186
275.1642, 35.19470
275.6463, 35.47186
276.1284, 35.96764
276.6106, 36.38876
277.0927, 36.69200
277.5748, 37.00204
278.0569, 37.41599
278.5390, 37.91046
279.0211, 38.80173
279.5032, 40.24263
279.9854, 42.16144
280.4675, 44.16826
280.9496, 46.27765
281.4317, 48.42247
281.9138, 50.57002
282.3959, 52.72340
282.8781, 54.73332
283.3602, 56.53055
283.8423, 58.16837
284.3244, 59.93190
284.8065, 61.89688
285.2886, 63.57948
285.7708, 64.55550
286.2529, 64.83653
286.7350, 64.63678
287.2171, 63.94662
287.6992, 62.83354
288.1813, 61.60616
288.6635, 60.28265
289.1456, 58.43217
289.6277, 55.48831
290.1098, 51.58784
290.5919, 47.76561
291.0740, 44.16481
291.5562, 40.68652
292.0383, 37.13925
292.5204, 33.50645
293.0025, 30.08211
293.4846, 27.07697
293.9667, 24.41670
294.4489, 21.83382
294.9310, 19.32150
295.4131, 16.89148
295.8952, 14.51314
296.3773, 12.22086
296.8594, 10.16301
297.3416, 8.338028
297.8237, 6.796844
298.3058, 5.782455
298.7879, 5.380173
299.2700, 5.118240
299.7521, 4.479431
300.2343, 3.530869
300.7164, 2.509171
301.1985, 1.297913
301.6806, 0.1455380
302.1627, 0.4600830
302.6448, 0.4828340
303.1270, 0.3701020
303.6091, 0.5352170
304.0912, 0.8707580
304.5733, 1.156662
305.0554, 1.143555
305.5375, 1.122345
306.0197, 1.603195
306.5018, 2.543793
306.9839, 3.209320
307.4660, 2.782532
307.9481, 1.796814
308.4302, 1.000458
308.9124, 0.5971680
309.3945, 0.4876100
309.8766, 0.8448790
310.3587, 1.542480
310.8408, 1.899673
311.3229, 1.250320
311.8051, 0.1667480
312.2872, 0.7714230
312.7693, 1.450668
313.2514, 1.934769
313.7335, 2.060211
314.2156, 1.987396
314.6978, 2.186295
315.1799, 3.182404
315.6620, 4.343811
316.1441, 5.144333
316.6262, 5.323776
317.1083, 5.633636
317.5905, 6.501343
318.0726, 7.695877
318.5547, 8.831635
319.0368, 9.668167
319.5189, 10.48842
320.0010, 11.49203
320.4832, 12.78720
320.9653, 13.81874
321.4474, 14.13976
321.9295, 14.21213
322.4116, 14.57660
322.8937, 15.55016
323.3759, 16.64272
323.8580, 17.82758
324.3401, 19.10704
324.8222, 20.09674
325.3043, 20.30858
325.7864, 20.44460
326.2686, 21.04556
326.7507, 23.23872
327.2328, 24.70999
327.7149, 24.78061
328.1970, 23.60185
328.6791, 22.89343
329.1613, 23.29807
329.6434, 23.69110
330.1255, 23.50778
330.6076, 22.43803
331.0897, 21.22746
331.5718, 19.73668
332.0540, 18.11652
332.5361, 16.78807
333.0182, 15.83096
333.5003, 15.04622
333.9824, 14.40276
334.4645, 14.00041
334.9467, 13.39172
335.4288, 12.39166
335.9109, 11.32144
336.3930, 10.76506
336.8751, 10.92679
337.3572, 11.11598
337.8394, 11.12407
338.3215, 10.94131
338.8036, 10.75406
339.2857, 10.48041
339.7678, 10.34520
340.2499, 10.62938
340.7321, 11.38190
341.2142, 12.27237
341.6963, 13.27716
342.1784, 14.34207
342.6605, 15.16597
343.1426, 15.68367
343.6248, 16.23384
344.1069, 17.10245
344.5890, 18.26230
345.0711, 19.47479
345.5532, 20.73769
346.0353, 21.97038
346.5175, 22.92828
346.9996, 23.62332
347.4817, 24.29523
347.9638, 25.09898
348.4459, 26.00166
348.9280, 26.95717
349.4102, 28.01500
349.8923, 28.89316
350.3744, 29.08066
350.8565, 28.72090
351.3386, 28.37148
351.8207, 28.53658
352.3029, 28.79971
352.7850, 28.33525
353.2671, 27.12167
353.7492, 25.88657
354.2313, 25.28114
354.7134, 25.08652
355.1956, 24.90712
355.6777, 24.50697
356.1598, 24.17339
356.6419, 24.18521
357.1240, 24.51065
357.6061, 24.97548
358.0883, 25.36617
358.5704, 25.89651
359.0525, 26.80525
359.5346, 28.26039
360.0167, 29.80142
360.4988, 31.03993
360.9810, 32.19653
361.4631, 33.71729
361.9452, 36.13098
362.4273, 38.68779
362.9094, 40.89955
363.3915, 42.57390
363.8737, 44.52055
364.3558, 47.13309
364.8379, 50.08276
365.3200, 53.02289
365.8021, 55.74669
366.2842, 58.62486
366.7664, 61.85440
367.2485, 65.44203
367.7306, 68.64140
368.2127, 71.20726
368.6948, 73.44740
369.1769, 75.64096
369.6591, 78.46713
370.1412, 80.43422
370.6233, 81.36783
371.1054, 81.37578
371.5875, 80.86107
372.0696, 79.94443
372.5518, 78.36520
373.0339, 75.90154
373.5160, 72.14903
373.9981, 68.61316
374.4802, 65.21625
374.9623, 62.05447
375.4445, 59.41646
375.9266, 57.51317
376.4087, 55.45044
376.8908, 52.81517
377.3729, 49.63431
377.8550, 47.11752
378.3372, 45.31819
378.8193, 44.09630
379.3014, 43.41606
379.7835, 43.28506
380.2656, 43.42993
380.7477, 43.88510
381.2299, 44.50085
381.7120, 44.82634
382.1941, 44.84885
382.6762, 45.00882
383.1583, 45.75453
383.6404, 46.91386
384.1226, 47.83736
384.6047, 48.49048
385.0868, 48.79404
385.5689, 48.66664
386.0510, 48.10953
386.5331, 47.13776
387.0153, 45.68871
387.4974, 43.85158
387.9795, 41.69737
388.4616, 39.23112
388.9437, 36.59413
389.4258, 33.80730
389.9080, 30.93605
390.3901, 28.12772
390.8722, 25.54463
391.3543, 22.89851
391.8364, 19.77368
392.3185, 16.38350
392.8007, 13.40596
393.2828, 11.41879
393.7649, 9.799866
394.2470, 8.114273
394.7291, 6.181915
395.2112, 4.476776
395.6934, 3.216675
396.1755, 2.272324
396.6576, 1.451355
397.1397, 0.7139430
397.6218, 8.3724998E-02
398.1039, 0.4546660
398.5861, 0.9099120
399.0682, 1.169861
399.5503, 1.099060
400.0324, 0.9005280
400.5145, 0.7278900
400.9966, 0.7191470
401.4788, 0.5352780
401.9609, 6.6986002E-02
402.4430, 0.6035770
402.9251, 1.136017
403.4072, 1.382751
403.8893, 1.717865
404.3714, 2.263458
404.8535, 2.972534
405.3357, 4.163193
405.8178, 6.031815
406.2999, 8.100418
406.7820, 9.634964
407.2641, 10.54659
407.7462, 11.41484
408.2284, 12.32208
408.7105, 13.31656
409.1926, 14.80714
409.6747, 16.87393
410.1568, 19.13995
410.6389, 21.28023
411.1211, 23.30344
411.6032, 25.40494
412.0853, 27.60822
412.5674, 29.90115
413.0495, 32.40715
413.5316, 35.10854
414.0138, 37.76337
414.4959, 40.10551
414.9780, 42.36327
415.4601, 44.88089
415.9422, 47.71837
416.4243, 50.65155
416.9065, 53.41264
417.3886, 56.17987
417.8707, 59.15752
418.3528, 62.75241
418.8349, 66.28082
419.3170, 69.39589
419.7992, 72.15289
420.2813, 74.63725
420.7634, 77.11591
421.2455, 79.21576
421.7276, 80.64424
422.2097, 81.30574
422.6919, 81.58650
423.1740, 81.51526
423.6561, 81.13770
424.1382, 80.51845
424.6203, 80.13864
425.1024, 79.05904
425.5846, 76.80516
426.0667, 73.31505
426.5488, 70.01799
427.0309, 66.84671
427.5130, 63.88982
427.9951, 61.14264
428.4773, 58.32396
428.9594, 56.37125
429.4415, 55.58653
429.9236, 55.59746
430.4057, 55.41887
430.8878, 54.92477
431.3700, 54.63890
431.8521, 54.73232
432.3342, 55.20619
432.8163, 56.23036
433.2984, 57.85260
433.7805, 59.86427
434.2627, 61.92647
434.7448, 64.09099
435.2269, 66.86757
435.7090, 70.43666
436.1911, 74.69861
436.6732, 79.51196
437.1554, 84.86308
437.6375, 90.50693
438.1196, 96.37851
438.6017, 102.4044
439.0838, 108.4623
439.5659, 114.5543
440.0481, 120.6879
440.5302, 127.5498
441.0123, 134.4227
441.4944, 140.1047
441.9765, 145.0202
442.4586, 147.8352
442.9408, 147.5919
443.4229, 144.3984
443.9050, 139.2105
444.3871, 131.8192
444.8692, 123.0205
445.3513, 113.2019
445.8335, 101.5874
446.3156, 90.43881
446.7977, 80.03931
447.2798, 70.43840
447.7619, 61.78731
448.2440, 54.13818
448.7262, 47.47824
449.2083, 42.03511
449.6904, 37.82892
450.1725, 33.82710
450.6546, 29.91756
451.1367, 26.40758
451.6189, 23.60684
452.1010, 21.68245
452.5831, 19.82130
453.0652, 17.80159
453.5473, 15.90961
454.0294, 14.87894
454.5116, 14.80740
454.9937, 14.78368
455.4758, 14.36975
455.9579, 13.63574
456.4400, 12.92365
456.9221, 12.20723
457.4043, 11.70964
457.8864, 11.93663
458.3685, 12.57388
458.8506, 12.67963
459.3327, 11.90198
459.8148, 10.69957
460.2970, 9.488785
460.7791, 8.271027
461.2612, 7.095551
461.7433, 5.894516
462.2254, 4.802902
462.7076, 4.000031
463.1897, 3.513199
463.6718, 3.072296
464.1539, 2.536285
464.6360, 1.981415
465.1181, 1.494141
465.6003, 1.240479
466.0824, 0.9027100
466.5645, 0.2858280
467.0466, 0.5057980
467.5287, 1.071548
468.0108, 1.311707
468.4930, 1.364517
468.9751, 1.204620
469.4572, 0.6747440
469.9393, 0.5539550
470.4214, 1.139969
470.9035, 1.867218
471.3857, 2.081223
471.8678, 1.594940
472.3499, 1.187698
472.8320, 0.9918670
473.3141, 0.9654690
473.7962, 1.023544
474.2784, 1.196640
474.7605, 1.221268
475.2426, 0.7998350
475.7247, 4.5044001E-02
476.2068, 0.3771060
476.6889, 0.4285430
477.1711, 0.2948460
477.6532, 4.3930002E-02
478.1353, 0.4187470
478.6174, 0.3363190
479.0995, 0.6333010
479.5816, 1.782745
480.0638, 2.284134
480.5459, 2.301697
481.0280, 2.408813
481.5101, 3.019073
481.9922, 3.734055
482.4743, 4.149612
482.9565, 4.125931
483.4386, 4.417877
483.9207, 5.617584
484.4028, 7.170120
484.8849, 8.490997
485.3670, 9.258835
485.8492, 9.990860
486.3313, 10.62271
486.8134, 11.22458
487.2955, 12.21239
487.7776, 13.88557
488.2597, 15.55615
488.7419, 16.98906
489.2240, 18.16254
489.7061, 19.12686
490.1882, 19.72227
490.6703, 20.30011
491.1524, 21.45018
491.6346, 23.32449
492.1167, 24.72055
492.5988, 25.25699
493.0809, 25.28296
493.5630, 25.71117
494.0451, 26.54666
494.5273, 27.64314
495.0094, 29.01306
495.4915, 30.55421
495.9736, 32.07120
496.4557, 33.54858
496.9378, 34.99043
497.4200, 36.17455
497.9021, 37.36842
498.3842, 38.96951
498.8663, 41.25485
499.3484, 43.78571
499.8305, 46.23677
500.3127, 48.71919
500.7948, 51.50105
501.2769, 54.96848
501.7590, 58.54939
502.2411, 62.06384
502.7232, 65.57187
503.2054, 68.71056
503.6875, 71.52808
504.1696, 73.86403
504.6517, 75.57716
505.1338, 76.73535
505.6159, 77.16119
506.0981, 76.90498
506.5802, 75.87332
507.0623, 73.75963
507.5444, 70.31239
508.0265, 66.46259
508.5086, 62.38062
508.9908, 58.12262
509.4729, 54.10216
509.9550, 50.31955
510.4371, 46.87122
510.9192, 43.85718
511.4013, 41.27351
511.8835, 39.21500
512.3655, 37.75092
512.8477, 36.58250
513.3298, 35.27342
513.8119, 33.98643
514.2940, 33.10646
514.7761, 32.96062
515.2582, 33.17540
515.7404, 33.59209
516.2225, 34.16988
516.7046, 34.65103
517.1867, 34.94839
517.6688, 35.09140
518.1509, 35.04459
518.6331, 34.61992
519.1152, 34.45351
519.5973, 35.30605
520.0794, 36.20764
520.5615, 35.93730
521.0436, 33.83720
521.5258, 31.57057
522.0079, 29.36290
522.4900, 27.18300
522.9721, 24.81926
523.4542, 22.21524
523.9363, 19.72499
524.4185, 17.49059
524.9006, 15.47008
525.3827, 13.82219
525.8648, 12.62183
526.3469, 11.52145
526.8290, 9.949829
527.3112, 8.143677
527.7933, 6.923920
528.2754, 6.619827
528.7575, 6.596542
529.2396, 6.220444
529.7217, 5.590012
530.2039, 4.866211
530.6860, 3.974258
531.1681, 3.101257
531.6502, 2.316940
532.1323, 1.619583
532.6144, 1.150558
533.0966, 1.202866
533.5787, 1.405258
534.0608, 1.456375
534.5429, 1.184677
535.0250, 0.8985900
535.5071, 0.5308530
535.9893, 0.1749570
536.4714, 3.8513001E-02
536.9535, 0.3678740
537.4356, 0.5428770
537.9177, 0.3364110
538.3998, 0.1664890
538.8820, 0.4032900
539.3641, 0.3213650
539.8462, 0.2038120
540.3283, 0.2160340
540.8104, 0.3453370
541.2925, 0.5227660
541.7747, 0.7534330
542.2568, 0.9761350
542.7389, 1.190598
543.2210, 1.344788
543.7031, 1.308823
544.1852, 1.012115
544.6674, 0.5683590
545.1495, 0.1300350
545.6316, 0.9067080
546.1137, 1.318985
546.5958, 0.7617030
547.0779, 0.1333160
547.5601, 2.3102000E-02
548.0422, 0.3354190
548.5243, 0.5412750
549.0064, 0.2360690
549.4885, 0.1115110
549.9706, 0.1976320
550.4528, 0.2136080
550.9349, 0.4263610
551.4170, 0.3100740
551.8991, 9.9013999E-02
552.3812, 0.1790470
552.8633, 0.6478120
553.3455, 0.9929350
553.8276, 1.039246
554.3097, 0.9060060
554.7918, 1.057190
555.2739, 1.490143
555.7560, 1.777985
556.2382, 1.409943
556.7203, 0.7582090
557.2024, 0.7601620
557.6845, 1.476349
558.1666, 2.201859
558.6487, 2.225281
559.1309, 1.956039
559.6130, 1.931305
560.0951, 2.402512
560.5772, 2.903564
561.0593, 3.045273
561.5414, 3.092331
562.0236, 3.507751
562.5057, 4.992325
562.9878, 6.246490
563.4699, 6.753922
563.9520, 6.600311
564.4341, 6.762115
564.9163, 7.323868
565.3984, 8.082947
565.8805, 9.000412
566.3626, 10.13776
566.8447, 11.05234
567.3268, 11.68703
567.8090, 12.29024
568.2911, 13.18449
568.7732, 14.33705
569.2553, 15.34425
569.7374, 16.06090
570.2195, 16.75548
570.7017, 17.78342
571.1838, 19.12642
571.6659, 20.69707
572.1480, 22.54910
572.6301, 24.56221
573.1122, 26.64778
573.5944, 28.82083
574.0765, 31.07286
574.5586, 33.07530
575.0407, 35.38791
575.5228, 38.40334
576.0049, 42.30006
576.4871, 46.46649
576.9692, 50.61748
577.4513, 55.18077
577.9334, 60.68097
578.4155, 67.21329
578.8976, 74.23515
579.3798, 81.56326
579.8619, 89.44296
580.3440, 98.29201
580.8261, 108.0828
581.3082, 118.6848
581.7903, 129.9425
582.2725, 141.9708
582.7546, 155.0757
583.2367, 169.1941
583.7188, 183.6349
584.2009, 197.5170
584.6830, 211.3981
585.1652, 225.9977
585.6473, 241.4899
586.1294, 257.5361
586.6115, 273.2177
587.0936, 289.8453
587.5757, 308.6076
588.0579, 330.1791
588.5400, 353.4742
589.0221, 378.6591
589.5042, 405.4504
589.9863, 433.0081
590.4684, 459.8181
590.9506, 489.3587
591.4327, 522.7523
591.9148, 559.7220
592.3969, 598.1241
592.8790, 638.1301
593.3611, 678.8070
593.8433, 720.6464
594.3254, 762.5388
594.8075, 803.3421
595.2896, 843.3077
595.7717, 879.0433
596.2538, 910.7025
596.7360, 935.1453
597.2181, 946.9133
597.7002, 944.6035
598.1823, 928.8916
598.6644, 897.8453
599.1465, 854.0150
599.6287, 801.5535
600.1108, 735.4961
600.5929, 668.2241
601.0750, 601.4233
601.5571, 536.0899
602.0392, 476.0526
602.5214, 420.6725
603.0035, 370.7039
603.4856, 327.0750
603.9677, 289.5355
604.4498, 256.7929
604.9319, 228.9630
605.4141, 204.6793
605.8962, 183.7307
606.3783, 165.6734
606.8604, 149.6549
607.3425, 135.5322
607.8246, 123.0228
608.3068, 112.3553
608.7889, 103.0792
609.2710, 94.48315
609.7531, 86.10469
610.2352, 78.57669
610.7173, 72.50148
