##NAMES=Metarossite
##RRUFFID=R100065
##IDEAL CHEMISTRY=CaV^5+^_2_O_6_&#183;2H_2_O
##LOCALITY=Blue Cap mine, San Juan County, Utah, USA
##OWNER=RRUFF
##SOURCE=Bob Jenkins
##DESCRIPTION=Pale yellow bladed crystals
##STATUS=The identification of this mineral has been confirmed by single-crystal X-ray diffraction.
##URL=rruff.info/R100065
90.49219, 0.0000000E+00
90.97430, 0.4556810
91.45642, 1.275505
91.93854, 9.149605
92.42065, 19.98199
92.90277, 27.88367
93.38489, 32.14538
93.86700, 36.52031
94.34912, 45.04359
94.83124, 56.98366
95.31335, 68.83341
95.79547, 78.79565
96.27759, 88.16123
96.75970, 98.91838
97.24182, 110.6678
97.72394, 122.4116
98.20605, 132.5164
98.68817, 140.9155
99.17029, 149.4797
99.65240, 160.5671
100.1345, 174.7370
100.6166, 190.6497
101.0988, 208.1894
101.5809, 226.7988
102.0630, 245.6848
102.5451, 262.5753
103.0272, 276.0185
103.5093, 287.0303
103.9915, 295.6009
104.4736, 302.4932
104.9557, 308.4576
105.4378, 313.8134
105.9199, 320.2600
106.4020, 329.5899
106.8842, 340.2583
107.3663, 349.1904
107.8484, 355.4417
108.3305, 365.8309
108.8126, 382.0214
109.2947, 412.0193
109.7769, 445.1640
110.2590, 477.6990
110.7411, 510.5889
111.2232, 545.6064
111.7053, 579.9392
112.1874, 611.5169
112.6696, 640.3098
113.1517, 661.8445
113.6338, 674.0893
114.1159, 674.0517
114.5980, 658.7147
115.0801, 633.6623
115.5623, 605.4701
116.0444, 576.6230
116.5265, 548.6620
117.0086, 522.6537
117.4907, 497.0172
117.9728, 471.2697
118.4550, 445.3999
118.9371, 419.4161
119.4192, 393.4317
119.9013, 367.5450
120.3834, 341.6469
120.8655, 315.1432
121.3477, 288.9218
121.8298, 263.5652
122.3119, 239.1138
122.7940, 215.4481
123.2761, 193.1000
123.7582, 171.5102
124.2404, 149.4506
124.7225, 124.6654
125.2046, 99.58290
125.6867, 77.66826
126.1688, 60.35055
126.6509, 43.97647
127.1331, 23.78326
127.6152, 0.5859680
128.0973, 21.53963
128.5794, 39.24689
129.0615, 53.80784
129.5436, 68.23087
130.0258, 83.22015
130.5079, 98.33458
130.9900, 113.0867
131.4721, 127.5495
131.9542, 140.4557
132.4363, 150.2380
132.9185, 157.2225
133.4006, 163.8092
133.8827, 171.3018
134.3648, 178.8838
134.8469, 182.8422
135.3290, 183.2330
135.8112, 179.6539
136.2933, 172.7885
136.7754, 162.7463
137.2575, 146.2119
137.7396, 120.3166
138.2217, 86.13629
138.7039, 50.66205
139.1860, 12.45856
139.6681, 24.86707
140.1502, 57.93829
140.6323, 87.01666
141.1144, 109.1944
141.5966, 122.9631
142.0787, 127.2626
142.5608, 126.6982
143.0429, 120.3620
143.5250, 109.8071
144.0071, 97.69641
144.4893, 81.98425
144.9714, 67.93036
145.4535, 57.43384
145.9356, 49.62189
146.4177, 47.56909
146.8998, 53.06128
147.3820, 64.57788
147.8641, 76.86194
148.3462, 92.60376
148.8283, 111.7855
149.3104, 138.3376
149.7925, 175.3265
150.2747, 215.4603
150.7568, 257.3081
151.2389, 300.9872
151.7210, 348.5746
152.2031, 401.0031
152.6852, 456.0861
153.1674, 513.2301
153.6495, 572.3352
154.1316, 632.9539
154.6137, 694.9851
155.0958, 758.4265
155.5779, 823.4956
156.0601, 891.6287
156.5422, 960.9600
157.0243, 1028.919
157.5064, 1104.779
157.9885, 1170.274
158.4706, 1221.818
158.9528, 1259.504
159.4349, 1279.840
159.9170, 1279.605
160.3991, 1262.232
160.8812, 1231.702
161.3633, 1183.458
161.8455, 1126.880
162.3276, 1062.419
162.8097, 987.9961
163.2918, 919.8988
163.7739, 862.8435
164.2560, 814.3677
164.7382, 760.1699
165.2203, 713.5625
165.7024, 678.6727
166.1845, 655.4805
166.6666, 645.1691
167.1487, 641.4412
167.6309, 638.9121
168.1130, 640.2010
168.5951, 650.6816
169.0772, 674.8698
169.5593, 708.0872
170.0414, 746.6804
170.5236, 790.6042
171.0057, 838.5444
171.4878, 888.2479
171.9699, 941.6111
172.4520, 1002.835
172.9341, 1073.475
173.4163, 1154.077
173.8984, 1245.438
174.3805, 1349.243
174.8626, 1461.746
175.3447, 1583.226
175.8268, 1713.251
176.3090, 1850.794
176.7911, 1998.533
177.2732, 2151.422
177.7553, 2300.896
178.2374, 2448.374
178.7195, 2588.287
179.2017, 2720.167
179.6838, 2843.891
180.1659, 2942.999
180.6480, 3003.049
181.1301, 3030.021
181.6122, 3038.881
182.0944, 3031.214
182.5765, 3009.662
183.0586, 2973.857
183.5407, 2924.330
184.0228, 2875.156
184.5049, 2832.777
184.9871, 2799.308
185.4692, 2783.928
185.9513, 2788.319
186.4334, 2812.936
186.9155, 2859.625
187.3976, 2928.086
187.8798, 3017.773
188.3619, 3127.355
188.8440, 3257.990
189.3261, 3409.203
189.8082, 3585.002
190.2903, 3782.455
190.7725, 3992.434
191.2546, 4217.807
191.7367, 4456.683
192.2188, 4718.978
192.7009, 5005.711
193.1830, 5284.420
193.6652, 5549.867
194.1473, 5801.657
194.6294, 6021.434
195.1115, 6211.460
195.5936, 6365.065
196.0757, 6476.780
196.5579, 6546.906
197.0400, 6564.844
197.5221, 6515.354
198.0042, 6402.236
198.4863, 6276.343
198.9684, 6137.564
199.4506, 5987.350
199.9327, 5823.719
200.4148, 5643.247
200.8969, 5473.988
201.3790, 5325.248
201.8611, 5197.825
202.3433, 5082.967
202.8254, 4978.224
203.3075, 4889.150
203.7896, 4824.489
204.2717, 4782.846
204.7538, 4768.987
205.2360, 4787.454
205.7181, 4839.898
206.2002, 4908.599
206.6823, 4995.062
207.1644, 5095.702
207.6465, 5210.109
208.1287, 5344.390
208.6108, 5467.214
209.0929, 5567.746
209.5750, 5648.012
210.0571, 5699.163
210.5392, 5725.198
211.0214, 5720.122
211.5035, 5669.808
211.9856, 5571.684
212.4677, 5438.350
212.9498, 5272.046
213.4319, 5070.782
213.9140, 4851.644
214.3962, 4613.165
214.8783, 4356.803
215.3604, 4087.338
215.8425, 3794.781
216.3246, 3506.024
216.8067, 3228.644
217.2889, 2964.575
217.7710, 2712.120
218.2531, 2465.041
218.7352, 2232.993
219.2173, 2034.243
219.6994, 1872.122
220.1816, 1735.655
220.6637, 1617.934
221.1458, 1518.884
221.6279, 1438.515
222.1100, 1378.134
222.5921, 1335.535
223.0743, 1303.527
223.5564, 1281.751
224.0385, 1271.794
224.5206, 1275.611
225.0027, 1297.078
225.4848, 1322.010
225.9670, 1349.150
226.4491, 1379.751
226.9312, 1418.094
227.4133, 1465.554
227.8954, 1518.199
228.3775, 1573.908
228.8597, 1636.523
229.3418, 1694.600
229.8239, 1746.032
230.3060, 1793.347
230.7881, 1842.203
231.2702, 1894.626
231.7524, 1946.195
232.2345, 1993.639
232.7166, 2034.212
233.1987, 2078.689
233.6808, 2128.203
234.1629, 2181.108
234.6451, 2233.521
235.1272, 2281.848
235.6093, 2334.714
236.0914, 2395.928
236.5735, 2466.720
237.0556, 2543.534
237.5378, 2626.889
238.0199, 2716.339
238.5020, 2810.766
238.9841, 2913.932
239.4662, 3018.382
239.9483, 3121.605
240.4305, 3221.982
240.9126, 3323.485
241.3947, 3431.873
241.8768, 3539.538
242.3589, 3627.878
242.8410, 3694.029
243.3232, 3745.001
243.8053, 3783.440
244.2874, 3811.205
244.7695, 3821.425
245.2516, 3811.827
245.7337, 3785.750
246.2159, 3749.184
246.6980, 3695.793
247.1801, 3641.860
247.6622, 3592.648
248.1443, 3547.518
248.6264, 3508.016
249.1086, 3469.970
249.5907, 3439.270
250.0728, 3427.615
250.5549, 3435.045
251.0370, 3461.324
251.5191, 3506.899
252.0013, 3572.188
252.4834, 3654.153
252.9655, 3753.618
253.4476, 3868.238
253.9297, 3994.932
254.4118, 4136.630
254.8940, 4282.131
255.3761, 4427.011
255.8582, 4570.501
256.3403, 4719.677
256.8224, 4877.784
257.3046, 5039.346
257.7867, 5191.614
258.2688, 5332.642
258.7509, 5472.053
259.2330, 5612.027
259.7151, 5754.064
260.1973, 5893.188
260.6794, 6026.539
261.1615, 6157.769
261.6436, 6289.791
262.1257, 6426.524
262.6078, 6557.087
263.0900, 6675.940
263.5721, 6782.692
264.0542, 6888.737
264.5363, 6994.361
265.0184, 7098.665
265.5005, 7202.584
265.9827, 7303.160
266.4648, 7409.731
266.9469, 7522.207
267.4290, 7639.721
267.9111, 7774.288
268.3932, 7927.510
268.8754, 8093.724
269.3575, 8265.902
269.8396, 8444.574
270.3217, 8633.394
270.8038, 8837.978
271.2859, 9058.212
271.7681, 9263.129
272.2502, 9454.566
272.7323, 9626.044
273.2144, 9767.942
273.6965, 9880.989
274.1786, 9964.071
274.6608, 10010.92
275.1429, 10026.21
275.6250, 10044.17
276.1071, 10064.95
276.5892, 10088.04
277.0714, 10112.46
277.5535, 10137.92
278.0356, 10168.72
278.5177, 10211.99
278.9998, 10260.05
279.4819, 10287.85
279.9641, 10300.31
280.4462, 10272.87
280.9283, 10193.04
281.4104, 10062.63
281.8925, 9858.007
282.3746, 9571.942
282.8568, 9212.278
283.3389, 8792.061
283.8210, 8307.769
284.3031, 7790.439
284.7852, 7246.569
285.2673, 6682.744
285.7495, 6131.351
286.2316, 5592.259
286.7137, 5073.450
287.1958, 4590.182
287.6779, 4142.459
288.1600, 3729.034
288.6422, 3349.406
289.1243, 3000.685
289.6064, 2690.248
290.0885, 2417.287
290.5706, 2174.305
291.0527, 1950.701
291.5349, 1746.596
292.0170, 1562.195
292.4991, 1402.077
292.9812, 1262.692
293.4633, 1139.307
293.9454, 1032.021
294.4276, 935.1797
294.9097, 841.8315
295.3918, 752.7329
295.8739, 674.2072
296.3560, 614.1774
296.8381, 566.6768
297.3203, 519.5717
297.8024, 472.5608
298.2845, 428.2419
298.7666, 389.2424
299.2487, 355.5833
299.7308, 325.8112
300.2130, 300.5742
300.6951, 278.4429
301.1772, 256.8472
301.6593, 235.9397
302.1414, 216.1929
302.6235, 198.1263
303.1057, 181.7491
303.5878, 167.9171
304.0699, 157.7252
304.5520, 149.1975
305.0341, 140.3156
305.5162, 131.1586
305.9984, 121.4015
306.4805, 109.6429
306.9626, 97.58704
307.4447, 88.31580
307.9268, 83.83972
308.4089, 80.33813
308.8911, 74.61609
309.3732, 66.95703
309.8553, 58.58118
310.3374, 49.35254
310.8195, 40.08508
311.3016, 32.01782
311.7838, 25.97498
312.2659, 20.01355
312.7480, 12.87659
313.2301, 5.104248
313.7122, 2.398682
314.1943, 8.190674
314.6765, 14.38110
315.1586, 23.05225
315.6407, 35.35498
316.1228, 46.83459
316.6049, 54.29712
317.0870, 59.59534
317.5692, 65.47375
318.0513, 73.30457
318.5334, 81.84412
319.0155, 90.64880
319.4976, 99.98071
319.9797, 108.9935
320.4619, 119.1533
320.9440, 128.4369
321.4261, 134.3085
321.9082, 132.5553
322.3903, 131.0081
322.8724, 132.4498
323.3546, 137.0718
323.8367, 141.1802
324.3188, 144.2845
324.8009, 146.4608
325.2830, 147.5997
325.7651, 147.6015
326.2473, 146.7628
326.7294, 144.7208
327.2115, 141.6353
327.6936, 138.8445
328.1757, 138.2614
328.6578, 136.5471
329.1400, 132.0242
329.6221, 121.5604
330.1042, 112.4850
330.5863, 106.1111
331.0684, 101.2093
331.5505, 94.10748
332.0327, 83.90442
332.5148, 72.62396
332.9969, 61.13086
333.4790, 50.09460
333.9611, 37.06195
334.4432, 21.05817
334.9254, 3.492432
335.4075, 12.85724
335.8896, 26.93341
336.3717, 42.05273
336.8538, 59.42133
337.3359, 79.37878
337.8180, 98.61261
338.3001, 116.2964
338.7823, 134.4356
339.2644, 155.2257
339.7465, 179.0885
340.2286, 203.9795
340.7107, 229.5782
341.1928, 255.8948
341.6750, 280.8538
342.1571, 304.2511
342.6392, 328.2493
343.1213, 355.3904
343.6034, 385.5419
344.0855, 415.2815
344.5677, 443.5168
345.0498, 471.2965
345.5319, 500.9225
346.0140, 532.4563
346.4961, 564.0656
346.9782, 594.2802
347.4604, 623.6068
347.9425, 653.4479
348.4246, 684.3685
348.9067, 715.3431
349.3888, 745.1826
349.8709, 773.9557
350.3531, 801.9562
350.8352, 828.9635
351.3173, 855.3208
351.7994, 882.5598
352.2815, 910.8099
352.7636, 937.7882
353.2458, 961.4775
353.7279, 982.2483
354.2100, 1000.890
354.6921, 1017.540
355.1742, 1032.254
355.6563, 1046.195
356.1385, 1058.990
356.6206, 1067.518
357.1027, 1067.990
357.5848, 1063.575
358.0669, 1057.979
358.5490, 1052.694
359.0312, 1045.716
359.5133, 1035.284
359.9954, 1021.954
360.4775, 1007.310
360.9596, 992.5253
361.4417, 976.4310
361.9239, 958.0266
362.4060, 937.0370
362.8881, 914.1212
363.3702, 888.8150
363.8523, 861.8785
364.3344, 834.4775
364.8166, 804.5167
365.2987, 776.0676
365.7808, 752.0605
366.2629, 732.9059
366.7450, 713.0706
367.2271, 691.2074
367.7093, 668.5605
368.1914, 646.2256
368.6735, 623.4388
369.1556, 601.7532
369.6377, 581.2698
370.1198, 561.9594
370.6020, 545.7132
371.0841, 534.3058
371.5662, 524.1505
372.0483, 513.4998
372.5304, 501.6675
373.0125, 490.1273
373.4947, 478.6683
373.9768, 467.3743
374.4589, 456.5880
374.9410, 446.4337
375.4231, 436.5847
375.9052, 426.6910
376.3874, 416.5771
376.8695, 406.7617
377.3516, 396.8850
377.8337, 387.5703
378.3158, 379.6808
378.7979, 373.5314
379.2801, 366.9122
379.7622, 358.8057
380.2443, 350.2254
380.7264, 346.5355
381.2085, 348.1855
381.6906, 349.9716
382.1728, 346.6384
382.6549, 339.2172
383.1370, 333.8588
383.6191, 332.2318
384.1012, 332.2921
384.5833, 331.7258
385.0655, 330.4062
385.5476, 326.9182
386.0297, 319.7690
386.5118, 310.0955
386.9939, 300.2977
387.4760, 291.0935
387.9582, 280.8583
388.4403, 268.0786
388.9224, 252.8993
389.4045, 236.0449
389.8866, 217.1052
390.3687, 197.3890
390.8509, 177.6462
391.3330, 157.9908
391.8151, 139.2885
392.2972, 121.2097
392.7793, 105.1542
393.2614, 92.29541
393.7436, 83.57666
394.2257, 76.87299
394.7078, 71.51050
395.1899, 67.63184
395.6720, 65.40405
396.1541, 64.44299
396.6363, 65.21417
397.1184, 67.90924
397.6005, 72.42969
398.0826, 79.13287
398.5647, 88.47321
399.0468, 99.59308
399.5290, 111.6803
400.0111, 122.9272
400.4932, 137.0834
400.9753, 155.2097
401.4574, 177.3857
401.9395, 200.5751
402.4217, 224.7317
402.9038, 250.1217
403.3859, 276.6902
403.8680, 303.5206
404.3501, 333.8621
404.8322, 367.8978
405.3144, 405.4744
405.7965, 445.5308
406.2786, 488.7766
406.7607, 532.8037
407.2428, 575.9149
407.7249, 618.1658
408.2071, 664.3303
408.6892, 715.3873
409.1713, 768.1684
409.6534, 818.3256
410.1355, 865.8795
410.6176, 915.2090
411.0998, 968.0349
411.5819, 1023.593
412.0640, 1080.110
412.5461, 1137.163
413.0282, 1196.465
413.5103, 1258.252
413.9925, 1322.510
414.4746, 1390.253
414.9567, 1462.220
415.4388, 1536.427
415.9209, 1612.266
416.4030, 1689.202
416.8852, 1768.126
417.3673, 1849.550
417.8494, 1931.875
418.3315, 2015.948
418.8136, 2101.110
419.2957, 2183.673
419.7779, 2264.654
420.2600, 2340.044
420.7421, 2404.519
421.2242, 2460.504
421.7063, 2502.119
422.1884, 2530.233
422.6706, 2543.611
423.1527, 2538.694
423.6348, 2512.653
424.1169, 2469.805
424.5990, 2411.571
425.0811, 2337.900
425.5633, 2249.490
426.0454, 2140.156
426.5275, 2019.416
427.0096, 1897.208
427.4917, 1773.025
427.9738, 1649.123
428.4560, 1524.417
428.9381, 1398.334
429.4202, 1281.651
429.9023, 1176.011
430.3844, 1079.149
430.8665, 991.6596
431.3487, 914.2712
431.8308, 841.4348
432.3129, 772.2982
432.7950, 708.0060
433.2771, 652.6055
433.7592, 606.7078
434.2414, 566.7686
434.7235, 532.5978
435.2056, 503.3354
435.6877, 474.9943
436.1698, 447.4392
436.6519, 423.3629
437.1341, 407.6171
437.6162, 397.7944
438.0983, 386.9062
438.5804, 371.4332
439.0625, 356.7446
439.5446, 349.3906
440.0268, 348.1107
440.5089, 348.3633
440.9910, 348.4622
441.4731, 348.3699
441.9552, 347.8213
442.4373, 346.6124
442.9195, 346.0431
443.4016, 347.2645
443.8837, 349.3171
444.3658, 351.0532
444.8479, 350.3999
445.3300, 351.1521
445.8122, 355.1259
446.2943, 362.0291
446.7764, 369.0604
447.2585, 375.7831
447.7406, 382.5463
448.2227, 389.7191
448.7049, 398.5814
449.1870, 405.2194
449.6691, 408.8732
450.1512, 410.5498
450.6333, 411.8524
451.1154, 413.0056
451.5976, 413.3031
452.0797, 412.2136
452.5618, 409.8903
453.0439, 408.7021
453.5260, 408.8198
454.0081, 409.7275
454.4903, 411.3756
454.9724, 413.7712
455.4545, 415.5705
455.9366, 416.4349
456.4187, 417.0974
456.9008, 418.5591
457.3830, 420.7683
457.8651, 423.6923
458.3472, 427.4045
458.8293, 431.7947
459.3114, 436.6907
459.7935, 442.0636
460.2757, 448.1467
460.7578, 454.4771
461.2399, 461.7808
461.7220, 471.0829
462.2041, 483.0837
462.6862, 496.5602
463.1684, 510.7126
463.6505, 525.7940
464.1326, 542.1003
464.6147, 560.2770
465.0968, 579.3610
465.5789, 598.5032
466.0611, 617.5712
466.5432, 637.3860
467.0253, 658.0648
467.5074, 679.4187
467.9895, 701.1897
468.4716, 722.8531
468.9538, 746.1281
469.4359, 772.7576
469.9180, 800.8678
470.4001, 824.5109
470.8822, 842.5381
471.3643, 857.9443
471.8465, 872.5249
472.3286, 886.7780
472.8107, 894.9875
473.2928, 896.4937
473.7749, 893.5759
474.2570, 889.0992
474.7392, 883.0554
475.2213, 872.4630
475.7034, 857.1066
476.1855, 836.3196
476.6676, 806.7882
477.1497, 769.0739
477.6319, 730.2296
478.1140, 695.2392
478.5961, 661.2274
479.0782, 623.0495
479.5603, 580.1744
480.0424, 535.6520
480.5246, 489.0065
481.0067, 443.0102
481.4888, 401.5688
481.9709, 368.1389
482.4530, 336.5237
482.9352, 303.0834
483.4173, 268.7974
483.8994, 236.7596
484.3815, 207.6689
484.8636, 181.2602
485.3457, 157.6926
485.8279, 137.2429
486.3100, 117.9716
486.7921, 98.87592
487.2742, 81.41479
487.7563, 66.89374
488.2384, 57.35455
488.7206, 47.07428
489.2027, 34.76617
489.6848, 21.36639
490.1669, 10.50439
490.6490, 2.798767
491.1311, 3.927368
491.6133, 10.81079
492.0954, 17.86029
492.5775, 22.89447
493.0596, 25.63483
493.5417, 27.37085
494.0238, 29.69653
494.5060, 32.32477
494.9881, 33.67560
495.4702, 32.83752
495.9523, 31.32275
496.4344, 31.63574
496.9165, 33.23950
497.3987, 34.10382
497.8808, 32.73083
498.3629, 30.32788
498.8450, 28.01691
499.3271, 25.89264
499.8092, 23.59119
500.2914, 21.11346
500.7735, 18.27869
501.2556, 14.89325
501.7377, 10.89313
502.2198, 6.388489
502.7019, 0.7097170
503.1841, 5.508362
503.6662, 10.55249
504.1483, 12.27032
504.6304, 15.00763
505.1125, 20.11688
505.5946, 27.75629
506.0768, 35.69604
506.5589, 44.09851
507.0410, 52.51233
507.5231, 60.20343
508.0052, 66.77271
508.4873, 75.41260
508.9695, 86.95374
509.4516, 99.76068
509.9337, 110.3764
510.4158, 118.9427
510.8979, 128.1094
511.3800, 139.3008
511.8622, 151.8626
512.3443, 164.0557
512.8264, 175.8835
513.3085, 189.1461
513.7906, 206.2862
514.2728, 225.2378
514.7549, 242.9744
515.2370, 258.1560
515.7191, 274.4263
516.2012, 294.3331
516.6833, 316.6984
517.1655, 340.0038
517.6476, 364.5734
518.1297, 389.1801
518.6118, 412.6289
519.0939, 435.2147
519.5760, 460.3030
520.0582, 490.2665
520.5403, 520.9767
521.0224, 550.0793
521.5045, 576.2314
521.9866, 605.1749
522.4688, 637.6148
522.9509, 672.0797
523.4330, 707.2924
523.9151, 743.2224
524.3972, 780.2945
524.8793, 818.7538
525.3615, 857.7880
525.8436, 895.2126
526.3257, 931.2248
526.8078, 968.4993
527.2899, 1010.691
527.7720, 1055.403
528.2542, 1096.395
528.7363, 1133.194
529.2184, 1168.879
529.7005, 1205.105
530.1826, 1241.635
530.6647, 1278.436
531.1469, 1316.993
531.6290, 1352.791
532.1111, 1383.445
532.5932, 1409.191
533.0753, 1430.460
533.5574, 1447.653
534.0396, 1460.402
534.5217, 1468.708
535.0038, 1472.424
535.4859, 1471.746
535.9680, 1468.119
536.4501, 1458.745
536.9323, 1441.610
537.4144, 1414.152
537.8965, 1385.760
538.3786, 1357.384
538.8607, 1327.038
539.3428, 1292.179
539.8250, 1252.353
540.3071, 1210.016
540.7892, 1165.220
541.2713, 1119.323
541.7534, 1078.114
542.2355, 1041.138
542.7177, 1003.918
543.1998, 960.0396
543.6819, 914.9123
544.1640, 878.0403
544.6461, 850.3021
545.1282, 824.5630
545.6104, 796.4528
546.0925, 767.6772
546.5746, 740.0784
547.0567, 713.2308
547.5388, 688.9998
548.0209, 669.6025
548.5031, 653.4117
548.9852, 636.3299
549.4673, 615.0489
549.9494, 595.4792
550.4315, 579.5560
550.9136, 567.3346
551.3958, 554.7948
551.8779, 541.4903
552.3600, 528.4996
552.8421, 516.7197
553.3242, 506.4396
553.8063, 495.6360
554.2885, 483.6858
554.7706, 471.9981
555.2527, 463.7123
555.7348, 458.2329
556.2169, 450.6372
556.6990, 438.7329
557.1812, 424.9753
557.6633, 412.4593
558.1454, 401.0641
558.6275, 390.2813
559.1096, 379.9584
559.5917, 370.2374
560.0739, 361.6837
560.5560, 354.2324
561.0381, 346.3052
561.5202, 337.0585
562.0023, 327.3304
562.4844, 317.7935
562.9666, 308.6174
563.4487, 299.4441
