##NAMES=Natrolite
##RRUFFID=R060561
##IDEAL CHEMISTRY=Na_2_(Si_3_Al_2_)O_10_&#183;2H_2_O
##LOCALITY=California, USA
##OWNER=RRUFF
##SOURCE=Gemological Institute of America
##DESCRIPTION=White fragment
##STATUS=The identification of this mineral has been confirmed by X-ray diffraction and chemical analysis
##URL=rruff.info/R060561
##MEASURED CHEMISTRY=Na_2.00_(Si_3.00_Al_2.00_)O_10_Â·2H_2_O
115.254, 0.000
115.736, 117.385
116.218, 7.609
116.701, 12.725
117.183, 282.143
117.665, 760.512
118.147, 1423.942
118.629, 2358.534
119.111, 3609.061
119.593, 5170.845
120.075, 6995.252
120.558, 9514.244
121.040, 12034.956
121.522, 14126.204
122.004, 15818.198
122.486, 16854.877
122.968, 16795.873
123.450, 15775.776
123.932, 14354.052
124.414, 12393.394
124.897, 10208.473
125.379, 8154.875
125.861, 6279.834
126.343, 4627.704
126.825, 3274.313
127.307, 2213.887
127.789, 1381.907
128.271, 791.135
128.753, 400.949
129.236, 108.355
129.718, 103.822
130.200, 78.835
130.682, 18.774
131.164, 13.477
131.646, 55.752
132.128, 107.141
132.610, 175.405
133.093, 93.762
133.575, 303.435
134.057, 894.450
134.539, 1411.050
135.021, 1822.748
135.503, 2218.669
135.985, 2790.410
136.467, 3579.033
136.949, 4304.200
137.432, 4797.748
137.914, 5041.412
138.396, 5266.115
138.878, 5464.928
139.360, 5662.722
139.842, 5938.398
140.324, 6301.226
140.806, 6718.704
141.288, 7176.876
141.771, 7695.474
142.253, 8212.408
142.735, 8746.092
143.217, 9291.200
143.699, 9692.099
144.181, 9973.479
144.663, 10088.874
145.145, 9998.644
145.628, 9676.216
146.110, 9187.265
146.592, 8514.520
147.074, 7616.203
147.556, 6734.836
148.038, 5802.100
148.520, 4904.095
149.002, 4162.744
149.484, 3570.117
149.967, 3126.248
150.449, 2834.390
150.931, 2709.890
151.413, 2702.618
151.895, 2829.825
152.377, 3074.479
152.859, 3397.302
153.342, 3798.607
153.824, 4278.317
154.306, 4832.979
154.788, 5449.115
155.270, 6158.013
155.752, 6967.835
156.234, 7877.477
156.716, 8895.151
157.198, 10026.468
157.680, 11257.248
158.163, 12567.425
158.645, 14007.547
159.127, 15475.120
159.609, 17037.025
160.091, 18661.174
160.573, 20075.039
161.055, 21269.389
161.538, 22164.525
162.020, 22668.838
162.502, 22730.869
162.984, 22409.922
163.466, 21659.281
163.948, 20470.221
164.430, 19099.545
164.912, 17555.543
165.394, 15939.606
165.876, 14388.808
166.359, 12893.447
166.841, 11527.012
167.323, 10344.547
167.805, 9358.457
168.287, 8508.734
168.769, 7764.338
169.251, 7138.423
169.733, 6646.893
170.216, 6363.486
170.698, 6187.050
171.180, 6024.858
171.662, 5858.539
172.144, 5730.319
172.626, 5720.532
173.108, 5745.255
173.590, 5711.788
174.072, 5550.747
174.555, 5293.670
175.037, 4963.110
175.519, 4533.542
176.001, 4082.623
176.483, 3681.231
176.965, 3327.315
177.447, 3031.940
177.929, 2798.562
178.412, 2622.541
178.894, 2501.612
179.376, 2439.653
179.858, 2431.956
180.340, 2471.466
180.822, 2558.256
181.304, 2694.010
181.786, 2883.694
182.268, 3124.041
182.751, 3404.594
183.233, 3722.210
183.715, 4076.599
184.197, 4484.143
184.679, 4953.982
185.161, 5396.349
185.643, 5772.823
186.125, 6061.840
186.607, 6188.679
187.090, 6104.158
187.572, 5826.969
188.054, 5408.982
188.536, 4837.310
189.018, 4211.067
189.500, 3649.089
189.982, 3158.175
190.464, 2710.245
190.947, 2301.715
191.429, 1933.678
191.911, 1644.497
192.393, 1440.952
192.875, 1299.824
193.357, 1187.870
193.839, 1106.902
194.321, 1059.225
194.803, 1050.389
195.286, 1078.269
195.768, 1119.830
196.250, 1173.921
196.732, 1243.340
197.214, 1333.039
197.696, 1441.582
198.178, 1569.687
198.661, 1715.889
199.143, 1881.168
199.625, 2075.824
200.107, 2301.188
200.589, 2558.682
201.071, 2850.876
201.553, 3178.939
202.035, 3539.702
202.517, 3936.156
202.999, 4366.557
203.482, 4821.892
203.964, 5319.556
204.446, 5838.597
204.928, 6317.047
205.410, 6767.272
205.892, 7139.735
206.374, 7412.194
206.857, 7600.161
207.339, 7603.273
207.821, 7374.788
208.303, 6945.931
208.785, 6490.544
209.267, 5999.733
209.749, 5497.779
210.231, 4994.482
210.713, 4474.069
211.195, 4003.888
211.678, 3589.434
212.160, 3231.767
212.642, 2966.833
213.124, 2814.047
213.606, 2718.138
214.088, 2632.664
214.570, 2559.139
215.052, 2489.813
215.535, 2421.793
216.017, 2354.714
216.499, 2292.895
216.981, 2227.486
217.463, 2177.124
217.945, 2167.678
218.427, 2217.659
218.909, 2261.044
219.391, 2281.016
219.874, 2276.129
220.356, 2269.448
220.838, 2270.564
221.320, 2259.475
221.802, 2213.885
222.284, 2136.276
222.766, 2019.413
223.248, 1856.449
223.731, 1639.764
224.213, 1422.705
224.695, 1196.782
225.177, 976.841
225.659, 778.505
226.141, 604.632
226.623, 450.381
227.105, 316.611
227.587, 206.682
228.070, 100.093
228.552, 9.579
229.034, 111.157
229.516, 182.009
229.998, 140.450
230.480, 115.102
230.962, 102.933
231.444, 108.632
231.926, 107.287
232.409, 92.832
232.891, 74.730
233.373, 67.928
233.855, 68.689
234.337, 87.536
234.819, 132.521
235.301, 115.276
235.783, 46.572
236.266, 10.650
236.748, 14.736
237.230, 71.978
237.712, 171.924
238.194, 288.967
238.676, 417.624
239.158, 570.574
239.640, 701.749
240.122, 819.515
240.605, 912.202
241.087, 954.088
241.569, 933.948
242.051, 880.143
242.533, 801.299
243.015, 689.565
243.497, 570.620
243.980, 433.033
244.462, 292.070
244.944, 184.751
245.426, 127.355
245.908, 78.070
246.390, 18.707
246.872, 58.912
247.354, 126.995
247.836, 85.871
248.318, 32.401
248.801, 3.180
249.283, 11.518
249.765, 22.382
250.247, 21.322
250.729, 5.056
251.211, 15.323
251.693, 45.109
252.176, 76.315
252.658, 86.771
253.140, 61.801
253.622, 39.337
254.104, 38.862
254.586, 76.013
255.068, 90.714
255.550, 76.408
256.032, 41.830
256.514, 7.529
256.997, 26.546
257.479, 60.770
257.961, 96.568
258.443, 94.068
258.925, 61.618
259.407, 48.153
259.889, 40.400
260.371, 0.643
260.854, 97.141
261.336, 184.378
261.818, 222.723
262.300, 181.090
262.782, 193.502
263.264, 282.354
263.746, 413.794
264.228, 504.548
264.711, 541.415
265.193, 569.543
265.675, 607.777
266.157, 655.406
266.639, 717.112
267.121, 799.462
267.603, 889.573
268.085, 955.786
268.567, 986.018
269.050, 1025.632
269.532, 1098.804
270.014, 1212.104
270.496, 1325.049
270.978, 1440.946
271.460, 1550.297
271.942, 1631.776
272.424, 1679.504
272.906, 1719.289
273.389, 1763.226
273.871, 1812.255
274.353, 1859.288
274.835, 1907.043
275.317, 1948.439
275.799, 1974.976
276.281, 1989.103
276.763, 1974.290
277.246, 1917.373
277.728, 1816.817
278.210, 1705.806
278.692, 1579.672
279.174, 1451.464
279.656, 1340.152
280.138, 1246.235
280.620, 1163.231
281.103, 1084.293
281.585, 1009.753
282.067, 962.778
282.549, 947.155
283.031, 949.999
283.513, 950.600
283.995, 948.532
284.477, 959.381
284.959, 987.644
285.441, 1033.769
285.924, 1105.927
286.406, 1208.145
286.888, 1315.644
287.370, 1417.793
287.852, 1518.984
288.334, 1577.827
288.816, 1555.011
289.298, 1471.064
289.781, 1416.723
290.263, 1394.780
290.745, 1388.534
291.227, 1381.061
291.709, 1372.430
292.191, 1364.020
292.673, 1362.180
293.155, 1364.012
293.638, 1347.647
294.120, 1309.658
294.602, 1265.194
295.084, 1221.116
295.566, 1181.313
296.048, 1160.157
296.530, 1165.956
297.012, 1192.751
297.494, 1226.560
297.977, 1267.834
298.459, 1326.452
298.941, 1414.816
299.423, 1528.554
299.905, 1653.415
300.387, 1784.329
300.869, 1925.528
301.351, 2080.830
301.833, 2251.453
302.316, 2446.300
302.798, 2658.882
303.280, 2901.151
303.762, 3201.685
304.244, 3593.925
304.726, 4013.687
305.208, 4450.813
305.690, 4887.630
306.172, 5190.733
306.655, 5263.242
307.137, 5142.480
307.619, 4865.391
308.101, 4382.791
308.583, 3830.039
309.065, 3287.416
309.547, 2756.759
310.030, 2269.480
310.512, 1837.063
310.994, 1463.670
311.476, 1154.347
311.958, 923.011
312.440, 727.764
312.922, 545.103
313.404, 382.283
313.886, 253.534
314.369, 180.481
314.851, 130.824
315.333, 83.130
315.815, 29.618
316.297, 11.008
316.779, 23.159
317.261, 19.135
317.743, 19.625
318.225, 43.089
318.708, 59.040
319.190, 53.698
319.672, 20.740
320.154, 19.378
320.636, 63.849
321.118, 112.612
321.600, 165.206
322.082, 216.535
322.565, 273.419
323.047, 336.076
323.529, 404.862
324.011, 488.460
324.493, 591.277
324.975, 705.724
325.457, 829.368
325.939, 964.524
326.422, 1106.015
326.904, 1249.784
327.386, 1392.505
327.868, 1557.589
328.350, 1754.701
328.832, 1969.072
329.314, 2189.416
329.796, 2442.392
330.278, 2663.641
330.760, 2857.285
331.243, 3024.367
331.725, 3106.062
332.207, 3088.222
332.689, 2998.813
333.171, 2852.025
333.653, 2614.385
334.135, 2385.107
334.617, 2178.667
335.100, 1989.554
335.582, 1794.608
336.064, 1580.475
336.546, 1386.569
337.028, 1239.776
337.510, 1150.847
337.992, 1071.418
338.474, 987.824
338.957, 912.128
339.439, 871.643
339.921, 873.733
340.403, 881.341
340.885, 871.679
341.367, 842.406
341.849, 831.773
342.331, 845.125
342.813, 870.255
343.296, 890.449
343.778, 906.140
344.260, 908.130
344.742, 880.930
345.224, 831.789
345.706, 811.236
346.188, 823.030
346.670, 848.368
347.152, 861.454
347.635, 865.925
348.117, 883.147
348.599, 922.615
349.081, 979.794
349.563, 1047.099
350.045, 1124.054
350.527, 1202.448
351.009, 1270.302
351.491, 1331.784
351.974, 1395.116
352.456, 1457.544
352.938, 1528.499
353.420, 1628.344
353.902, 1752.039
354.384, 1871.221
354.866, 1960.271
355.349, 2033.554
355.831, 2109.659
356.313, 2189.196
356.795, 2279.812
357.277, 2401.357
357.759, 2542.378
358.241, 2665.463
358.723, 2745.075
359.205, 2803.485
359.688, 2863.406
360.170, 2938.337
360.652, 2983.397
361.134, 3002.209
361.616, 2974.268
362.098, 2864.792
362.580, 2568.532
363.062, 2265.752
363.544, 2038.507
364.027, 1904.788
364.509, 1777.652
364.991, 1637.752
365.473, 1492.916
365.955, 1353.297
366.437, 1204.035
366.919, 1075.201
367.401, 976.716
367.884, 908.785
368.366, 854.816
368.848, 823.072
369.330, 799.694
369.812, 775.057
370.294, 737.083
370.776, 716.816
371.258, 732.361
371.741, 770.522
372.223, 769.107
372.705, 713.463
373.187, 638.165
373.669, 555.872
374.151, 456.125
374.633, 379.024
375.115, 332.423
375.597, 303.033
376.079, 262.272
376.562, 207.195
377.044, 150.583
377.526, 94.724
378.008, 38.065
378.490, 0.932
378.972, 14.265
379.454, 16.608
379.936, 10.649
380.419, 3.257
380.901, 1.499
381.383, 31.833
381.865, 83.955
382.347, 56.196
382.829, 52.304
383.311, 52.910
383.793, 39.898
384.276, 16.366
384.758, 10.020
385.240, 40.438
385.722, 68.517
386.204, 90.869
386.686, 105.745
387.168, 103.433
387.650, 60.000
388.132, 2.861
388.615, 29.850
389.097, 26.942
389.579, 17.222
390.061, 26.181
390.543, 44.469
391.025, 53.596
391.507, 29.744
391.989, 5.289
392.471, 7.257
392.954, 40.911
393.436, 64.424
393.918, 39.638
394.400, 4.044
394.882, 3.054
395.364, 63.579
395.846, 8.935
396.328, 28.318
396.810, 41.114
397.293, 44.116
397.775, 25.281
398.257, 7.031
398.739, 2.076
399.221, 9.386
399.703, 32.224
400.185, 79.379
400.668, 141.335
401.150, 192.849
401.632, 223.494
402.114, 257.218
402.596, 302.043
403.078, 358.668
403.560, 426.974
404.042, 517.037
404.524, 613.229
405.007, 685.754
405.489, 721.191
405.971, 775.096
406.453, 841.214
406.935, 931.582
407.417, 1179.000
407.899, 1615.507
408.381, 2062.424
408.863, 2366.366
409.346, 2533.383
409.828, 2630.366
410.310, 2658.565
410.792, 2638.619
411.274, 2595.913
411.756, 2532.818
412.238, 2475.813
412.720, 2452.120
413.203, 2444.231
413.685, 2417.618
414.167, 2370.251
414.649, 2304.765
415.131, 2208.954
415.613, 2094.865
416.095, 1989.634
416.577, 1901.315
417.060, 1828.132
417.542, 1776.614
418.024, 1745.513
418.506, 1702.839
418.988, 1614.031
419.470, 1513.871
419.952, 1435.399
420.434, 1389.894
420.916, 1362.958
421.398, 1353.261
421.881, 1359.172
422.363, 1374.931
422.845, 1402.059
423.327, 1437.026
423.809, 1477.614
424.291, 1519.930
424.773, 1577.076
425.255, 1647.390
425.738, 1732.936
426.220, 1837.459
426.702, 1955.413
427.184, 2099.198
427.666, 2271.133
428.148, 2470.586
428.630, 2713.702
429.112, 3009.465
429.595, 3332.121
430.077, 3656.427
430.559, 3980.354
431.041, 4318.720
431.523, 4671.517
432.005, 5048.848
432.487, 5472.895
432.969, 5942.343
433.451, 6476.693
433.934, 7089.194
434.416, 7776.537
434.898, 8512.188
435.380, 9287.157
435.862, 10151.501
436.344, 11145.680
436.826, 12274.054
437.308, 13552.681
437.790, 15018.171
438.273, 16625.986
438.755, 18337.490
439.237, 20144.793
439.719, 21948.490
440.201, 23901.086
440.683, 25728.707
441.165, 27188.492
441.647, 28369.986
442.129, 28891.596
442.612, 28388.797
443.094, 27080.117
443.576, 25417.166
444.058, 23326.875
444.540, 21104.170
445.022, 18809.777
445.504, 16391.410
445.987, 14205.550
446.469, 12281.098
446.951, 10607.774
447.433, 9146.049
447.915, 7963.058
448.397, 6918.364
448.879, 6009.585
449.361, 5228.196
449.843, 4552.485
450.326, 4000.452
450.808, 3512.570
451.290, 3057.924
451.772, 2629.832
452.254, 2254.941
452.736, 1938.623
453.218, 1673.070
453.700, 1462.631
454.182, 1306.379
454.665, 1164.533
455.147, 1030.565
455.629, 901.244
456.111, 763.469
456.593, 617.920
457.075, 486.999
457.557, 393.819
458.039, 329.700
458.522, 281.453
459.004, 252.369
459.486, 223.610
459.968, 171.815
460.450, 103.752
460.932, 39.086
461.414, 20.035
461.896, 66.996
462.379, 90.821
462.861, 88.353
463.343, 91.897
463.825, 77.157
464.307, 37.707
464.789, 3.675
465.271, 32.978
465.753, 51.483
466.235, 37.684
466.717, 1.711
467.200, 32.590
467.682, 50.974
468.164, 61.824
468.646, 64.103
469.128, 47.494
469.610, 50.803
470.092, 77.932
470.574, 90.765
471.057, 40.525
471.539, 20.948
472.021, 77.719
472.503, 124.309
472.985, 162.938
473.467, 208.603
473.949, 262.310
474.431, 315.495
474.914, 354.189
475.396, 384.394
475.878, 435.779
476.360, 515.226
476.842, 607.050
477.324, 694.521
477.806, 779.009
478.288, 862.121
478.770, 950.743
479.253, 1036.578
479.735, 1106.657
480.217, 1162.168
480.699, 1222.873
481.181, 1308.670
481.663, 1401.261
482.145, 1485.535
482.627, 1559.045
483.109, 1619.308
483.592, 1654.857
484.074, 1675.872
484.556, 1705.211
485.038, 1775.656
485.520, 1827.036
486.002, 1828.692
486.484, 1769.836
486.966, 1737.076
487.448, 1747.601
487.931, 1767.674
488.413, 1767.487
488.895, 1737.824
489.377, 1716.631
489.859, 1712.424
490.341, 1717.922
490.823, 1714.593
491.306, 1703.392
491.788, 1681.232
492.270, 1633.119
492.752, 1568.402
493.234, 1548.772
493.716, 1579.278
494.198, 1620.516
494.680, 1633.508
495.162, 1624.512
495.645, 1607.595
496.127, 1582.574
496.609, 1556.255
497.091, 1531.943
497.573, 1511.041
498.055, 1498.659
498.537, 1498.325
499.019, 1506.814
499.501, 1521.499
499.984, 1541.420
500.466, 1571.762
500.948, 1617.581
501.430, 1673.280
501.912, 1734.207
502.394, 1809.559
502.876, 1877.176
503.358, 1925.024
503.841, 1960.850
504.323, 2018.597
504.805, 2102.593
505.287, 2203.377
505.769, 2321.074
506.251, 2458.437
506.733, 2584.723
507.215, 2696.027
507.698, 2805.295
508.180, 2931.258
508.662, 3073.960
509.144, 3208.283
509.626, 3309.579
510.108, 3418.188
510.590, 3643.715
511.072, 3973.855
511.554, 4293.456
512.036, 4537.701
512.519, 4721.525
513.001, 4857.994
513.483, 4943.690
513.965, 5031.329
514.447, 5147.033
514.929, 5292.512
515.411, 5469.491
515.893, 5715.052
516.375, 5956.424
516.858, 6144.737
517.340, 6300.640
517.822, 6499.746
518.304, 6798.111
518.786, 7110.579
519.268, 7398.575
519.750, 7645.621
520.232, 7908.554
520.715, 8178.757
521.197, 8475.312
521.679, 8817.410
522.161, 9200.554
522.643, 9641.039
523.125, 10142.145
523.607, 10702.146
524.089, 11312.566
524.571, 11968.551
525.054, 12699.186
525.536, 13508.147
526.018, 14403.021
526.500, 15399.795
526.982, 16500.041
527.464, 17754.334
527.946, 19214.074
528.429, 20849.154
528.911, 22610.016
529.393, 24486.844
529.875, 26450.662
530.357, 28560.621
530.839, 30756.395
531.321, 32826.059
531.803, 34943.551
532.286, 36727.902
532.768, 38034.953
533.250, 38893.633
533.732, 39083.414
534.214, 38494.777
534.696, 37287.090
535.178, 35537.715
535.660, 32992.383
536.142, 30386.166
536.625, 27674.006
537.107, 24949.256
537.589, 22371.395
538.071, 19923.943
538.553, 17701.307
539.035, 15718.812
539.517, 13979.062
539.999, 12473.289
540.481, 11194.218
540.964, 10066.772
541.446, 9027.936
541.928, 8086.824
542.410, 7275.750
542.892, 6613.141
543.374, 6038.237
543.856, 5491.870
544.338, 4986.894
544.820, 4541.922
545.303, 4201.775
545.785, 3898.033
546.267, 3591.101
546.749, 3284.642
547.231, 3007.855
547.713, 2778.029
548.195, 2576.325
548.677, 2393.550
549.159, 2237.245
549.642, 2074.465
550.124, 1888.895
550.606, 1708.908
551.088, 1574.078
551.570, 1499.484
552.052, 1419.482
552.534, 1316.017
553.016, 1193.527
553.499, 1067.807
553.981, 941.878
554.463, 838.439
554.945, 788.584
555.427, 772.736
555.909, 736.265
556.391, 677.148
556.873, 611.650
557.356, 544.315
557.838, 483.348
558.320, 439.699
558.802, 426.053
559.284, 417.975
559.766, 407.562
560.248, 390.597
560.730, 359.803
561.213, 287.327
561.695, 222.287
562.177, 183.757
562.659, 176.017
563.141, 169.276
563.623, 157.116
564.105, 148.103
564.587, 150.784
565.069, 172.725
565.552, 179.725
566.034, 167.536
566.516, 144.627
566.998, 125.351
567.480, 110.104
567.962, 84.835
568.444, 40.155
568.926, 13.093
569.408, 54.180
569.891, 37.119
570.373, 19.373
570.855, 7.689
571.337, 22.280
571.819, 30.054
572.301, 31.727
572.783, 9.018
573.265, 17.826
573.747, 14.001
574.230, 9.669
574.712, 22.914
575.194, 3.768
575.676, 16.734
576.158, 16.875
576.640, 22.898
577.122, 16.212
577.604, 13.429
578.086, 23.340
578.569, 26.193
579.051, 17.961
579.533, 10.941
580.015, 10.160
580.497, 25.352
580.979, 44.782
581.461, 31.260
581.943, 38.342
582.426, 44.451
582.908, 14.425
583.390, 34.696
583.872, 63.996
584.354, 40.566
584.836, 12.822
585.318, 17.726
585.800, 46.882
586.282, 75.017
586.765, 100.832
587.247, 115.581
587.729, 107.666
588.211, 69.147
588.693, 56.362
589.175, 90.404
589.657, 133.472
590.140, 156.737
590.622, 150.706
591.104, 156.969
591.586, 182.296
592.068, 214.515
592.550, 231.605
593.032, 233.919
593.514, 238.633
593.996, 254.659
594.479, 273.858
594.961, 276.406
595.443, 265.415
595.925, 259.514
596.407, 277.414
596.889, 302.343
597.371, 318.313
597.853, 323.582
598.335, 324.940
598.818, 332.566
599.300, 333.912
599.782, 318.195
600.264, 269.337
600.746, 221.657
601.228, 165.174
601.710, 114.727
602.192, 102.759
602.674, 154.426
603.157, 182.590
603.639, 157.809
604.121, 92.835
604.603, 42.036
605.085, 5.993
605.567, 18.114
606.049, 28.778
606.531, 28.966
607.013, 20.803
607.496, 3.327
607.978, 3.051
608.460, 14.185
608.942, 44.618
609.424, 61.008
609.906, 8.437
610.388, 12.152
610.870, 10.612
611.353, 27.226
611.835, 1.500
612.317, 3.968
612.799, 11.337
613.281, 39.518
613.763, 82.065
614.245, 84.980
614.727, 28.059
615.209, 23.571
615.692, 24.528
616.174, 6.773
616.656, 26.859
617.138, 29.389
617.620, 16.722
618.102, 24.237
618.584, 23.531
619.067, 47.493
619.549, 23.521
620.031, 8.396
620.513, 16.241
620.995, 7.390
621.477, 5.695
621.959, 24.946
622.441, 40.308
622.923, 41.997
623.406, 33.760
623.888, 38.199
624.370, 71.471
624.852, 101.342
625.334, 117.874
625.816, 120.824
626.298, 109.973
626.780, 78.994
627.263, 45.461
627.745, 25.850
