##NAMES=Nepheline
##RRUFFID=R060581
##IDEAL CHEMISTRY=NaAlSiO_4_
##LOCALITY=Capo di Bova, Via Appia Antica, Rome, Italy
##OWNER=RRUFF
##SOURCE=Michael Scott
##DESCRIPTION=Colorless hexagonal prisms
##STATUS=The identification of this mineral is confirmed by single-crystal X-ray diffraction and chemical analysis.
##URL=rruff.info/R060581
##MEASURED CHEMISTRY=(Na_0.66_K_0.27_Ca_0.04_)_Î£=0.97_Al_0.98_Si_1.01_O_4_
89.78320, 0.0000000E+00
90.26532, 0.1319580
90.74744, 3.063599
91.22955, 13.38245
91.71167, 28.76843
92.19379, 48.74646
92.67590, 73.31262
93.15802, 91.35474
93.64014, 92.39941
94.12225, 80.24622
94.60437, 73.48364
95.08649, 75.30432
95.56860, 73.04858
96.05072, 70.53796
96.53284, 72.30408
97.01495, 74.06079
97.49707, 68.45618
97.97919, 52.69861
98.46130, 37.87000
98.94342, 24.51562
99.42554, 12.73621
99.90765, 6.224854
100.3898, 6.138672
100.8719, 8.575195
101.3540, 7.863770
101.8361, 3.419922
102.3182, 1.488770
102.8004, 5.838013
103.2825, 9.860107
103.7646, 12.43982
104.2467, 14.12964
104.7288, 14.18848
105.2109, 10.75610
105.6931, 2.957397
106.1752, 7.007324
106.6573, 18.34985
107.1394, 30.40747
107.6215, 44.89648
108.1036, 64.78931
108.5858, 88.27856
109.0679, 104.9117
109.5500, 109.8461
110.0321, 111.9452
110.5142, 115.8662
110.9963, 122.2119
111.4785, 129.7450
111.9606, 138.7377
112.4427, 149.1382
112.9248, 159.2864
113.4069, 168.6302
113.8890, 177.7815
114.3712, 187.4103
114.8533, 197.9729
115.3354, 208.6240
115.8175, 219.7261
116.2996, 231.7269
116.7817, 241.4961
117.2639, 246.6010
117.7460, 249.3762
118.2281, 252.7714
118.7102, 260.5012
119.1923, 267.3510
119.6744, 269.3773
120.1566, 265.2587
120.6387, 260.5258
121.1208, 257.6823
121.6029, 256.5964
122.0850, 257.0648
122.5671, 258.2692
123.0493, 261.1897
123.5314, 267.6519
124.0135, 279.3772
124.4956, 290.9606
124.9777, 297.1689
125.4598, 298.6565
125.9420, 297.8007
126.4241, 294.5298
126.9062, 290.1196
127.3883, 286.9319
127.8704, 285.5759
128.3525, 285.4424
128.8347, 285.8662
129.3168, 286.8444
129.7989, 287.9799
130.2810, 289.3835
130.7631, 290.8145
131.2452, 291.6240
131.7274, 292.1036
132.2095, 291.6609
132.6916, 288.2257
133.1737, 281.5345
133.6558, 273.7780
134.1379, 266.8656
134.6201, 260.8052
135.1022, 255.0735
135.5843, 249.5730
136.0664, 244.3025
136.5485, 239.2655
137.0306, 234.4822
137.5128, 229.8796
137.9949, 224.7732
138.4770, 218.6123
138.9591, 214.7247
139.4412, 215.0687
139.9233, 220.0529
140.4055, 222.8381
140.8876, 223.1602
141.3697, 221.4678
141.8518, 218.1627
142.3339, 212.3016
142.8160, 206.8871
143.2982, 203.1588
143.7803, 201.7836
144.2624, 199.8635
144.7445, 196.7645
145.2266, 193.3403
145.7087, 191.5715
146.1909, 192.4093
146.6730, 193.7603
147.1551, 194.8271
147.6372, 194.7491
148.1193, 195.4081
148.6014, 197.3754
149.0836, 200.2014
149.5657, 202.5278
150.0478, 203.9341
150.5299, 205.0565
151.0120, 206.1990
151.4941, 206.7917
151.9763, 207.9738
152.4584, 210.1156
152.9405, 212.9668
153.4226, 215.5020
153.9047, 217.4163
154.3868, 219.0885
154.8690, 220.7325
155.3511, 222.0562
155.8332, 223.7444
156.3153, 226.2532
156.7974, 229.3539
157.2795, 231.4857
157.7617, 231.4707
158.2438, 231.2003
158.7259, 231.9479
159.2080, 235.5470
159.6901, 238.3700
160.1722, 238.4617
160.6544, 236.0193
161.1365, 234.7800
161.6186, 237.8323
162.1007, 242.0996
162.5828, 244.9561
163.0649, 243.3240
163.5471, 242.2256
164.0292, 244.1108
164.5113, 249.0056
164.9934, 253.7708
165.4755, 257.3792
165.9576, 259.8140
166.4398, 260.9832
166.9219, 259.6355
167.4040, 257.8999
167.8861, 257.3398
168.3682, 258.1101
168.8503, 258.7454
169.3325, 257.9006
169.8146, 256.3752
170.2967, 255.4209
170.7788, 256.5464
171.2609, 258.0183
171.7430, 257.9304
172.2252, 256.0168
172.7073, 254.1753
173.1894, 254.1440
173.6715, 255.3772
174.1536, 256.5234
174.6357, 257.0847
175.1179, 257.2134
175.6000, 256.9741
176.0821, 256.2695
176.5642, 255.6150
177.0463, 255.1609
177.5284, 255.0923
178.0106, 255.9192
178.4927, 258.8865
178.9748, 262.7427
179.4569, 264.8899
179.9390, 264.7451
180.4211, 264.4480
180.9033, 266.6533
181.3854, 271.0742
181.8675, 276.1133
182.3496, 281.2534
182.8317, 286.3301
183.3138, 291.1570
183.7960, 295.4150
184.2781, 300.0447
184.7602, 306.3738
185.2423, 314.3416
185.7244, 322.8027
186.2065, 331.2749
186.6887, 339.7480
187.1708, 348.4033
187.6529, 357.2244
188.1350, 366.1897
188.6171, 374.8970
189.0992, 383.4412
189.5814, 392.2793
190.0635, 401.6128
190.5456, 411.6006
191.0277, 422.2695
191.5098, 433.9019
191.9919, 445.9426
192.4741, 456.6812
192.9562, 465.9954
193.4383, 475.5908
193.9204, 486.9719
194.4025, 499.9727
194.8846, 511.5647
195.3668, 520.7170
195.8489, 529.0066
196.3310, 541.0591
196.8131, 557.4409
197.2952, 573.1460
197.7773, 584.2678
198.2595, 590.5874
198.7416, 598.1045
199.2237, 607.7913
199.7058, 618.7913
200.1879, 628.9917
200.6700, 638.7417
201.1522, 646.7158
201.6343, 651.7864
202.1164, 653.7754
202.5985, 654.7566
203.0806, 654.7744
203.5627, 654.0269
204.0449, 653.3442
204.5270, 653.0269
205.0091, 651.7139
205.4912, 648.3215
205.9733, 642.6040
206.4554, 636.3669
206.9376, 630.3843
207.4197, 623.8745
207.9018, 613.0012
208.3839, 596.3657
208.8660, 578.9189
209.3481, 564.5952
209.8303, 554.3105
210.3124, 542.8440
210.7945, 529.4236
211.2766, 514.5249
211.7587, 499.4863
212.2408, 484.2488
212.7230, 468.9575
213.2051, 453.4714
213.6872, 437.6038
214.1693, 422.0149
214.6514, 406.8838
215.1335, 392.0186
215.6157, 377.2568
216.0978, 362.2141
216.5799, 347.6228
217.0620, 333.7131
217.5441, 320.2166
218.0262, 308.0813
218.5084, 297.7068
218.9905, 288.6526
219.4726, 279.0610
219.9547, 268.1460
220.4368, 257.8586
220.9189, 249.6675
221.4011, 244.2087
221.8832, 239.2397
222.3653, 234.9668
222.8474, 231.1128
223.3295, 225.8967
223.8116, 218.3777
224.2938, 211.1729
224.7759, 206.1157
225.2580, 204.5288
225.7401, 201.8269
226.2222, 197.0457
226.7043, 190.9209
227.1865, 186.4321
227.6686, 184.4453
228.1507, 182.6304
228.6328, 179.8298
229.1149, 176.1675
229.5970, 171.0078
230.0792, 163.6570
230.5613, 155.0620
231.0434, 148.5542
231.5255, 144.5676
232.0076, 141.6450
232.4897, 139.6921
232.9719, 140.7261
233.4540, 138.4880
233.9361, 131.4236
234.4182, 120.9922
234.9003, 112.2175
235.3824, 105.6399
235.8646, 99.94824
236.3467, 94.52612
236.8288, 89.18750
237.3109, 84.65454
237.7930, 81.27637
238.2751, 78.64404
238.7573, 75.52661
239.2394, 71.41064
239.7215, 66.92920
240.2036, 62.42432
240.6857, 57.93701
241.1678, 53.62451
241.6500, 49.35815
242.1321, 45.41626
242.6142, 42.31543
243.0963, 40.23462
243.5784, 38.35498
244.0605, 36.37402
244.5427, 34.29932
245.0248, 32.04443
245.5069, 29.83472
245.9890, 27.74707
246.4711, 25.55420
246.9532, 22.39917
247.4354, 20.08179
247.9175, 19.77441
248.3996, 22.61670
248.8817, 24.05908
249.3638, 23.31812
249.8459, 21.54785
250.3281, 20.98511
250.8102, 22.31006
251.2923, 23.74609
251.7744, 24.55371
252.2565, 24.39966
252.7386, 25.12622
253.2208, 27.16040
253.7029, 29.96143
254.1850, 32.49048
254.6671, 34.04395
255.1492, 36.43921
255.6313, 40.36938
256.1135, 45.94287
256.5956, 52.09106
257.0777, 58.58960
257.5598, 65.32837
258.0419, 72.58008
258.5240, 81.27856
259.0062, 88.34253
259.4883, 92.28296
259.9704, 92.69092
260.4525, 94.95166
260.9346, 99.59497
261.4167, 105.4109
261.8989, 111.2791
262.3810, 117.5996
262.8631, 122.8030
263.3452, 126.0901
263.8273, 127.5793
264.3094, 130.9011
264.7916, 137.1956
265.2737, 143.5676
265.7558, 147.1138
266.2379, 147.2131
266.7200, 146.5593
267.2021, 145.9214
267.6843, 145.1001
268.1664, 141.8462
268.6485, 135.3176
269.1306, 128.0642
269.6127, 122.3879
270.0948, 118.6804
270.5770, 114.5769
271.0591, 109.3174
271.5412, 103.3618
272.0233, 99.24146
272.5054, 97.62085
272.9875, 96.05469
273.4697, 92.69897
273.9518, 87.26025
274.4339, 81.71582
274.9160, 76.36426
275.3981, 71.04932
275.8802, 64.91577
276.3624, 57.75171
276.8445, 51.01099
277.3266, 45.63281
277.8087, 41.67603
278.2908, 38.61743
278.7729, 36.81445
279.2551, 35.46362
279.7372, 32.74219
280.2193, 28.53735
280.7014, 23.68018
281.1835, 17.96558
281.6656, 11.43506
282.1478, 6.976074
282.6299, 5.157959
283.1120, 4.539795
283.5941, 2.436035
284.0762, 1.262939
284.5583, 4.286621
285.0405, 5.439941
285.5226, 4.889160
286.0047, 3.874023
286.4868, 2.169434
286.9689, 0.7912600
287.4510, 1.807617
287.9332, 5.067139
288.4153, 7.272949
288.8974, 6.436035
289.3795, 3.492920
289.8616, 2.029297
290.3438, 2.176025
290.8259, 2.965820
291.3080, 3.433838
291.7901, 3.641846
292.2722, 3.896240
292.7543, 4.141846
293.2365, 4.578369
293.7186, 5.763184
294.2007, 7.704590
294.6828, 9.993164
295.1649, 12.98926
295.6470, 16.16260
296.1292, 17.60620
296.6113, 15.98608
297.0934, 13.31055
297.5755, 12.64258
298.0576, 13.88208
298.5397, 16.05957
299.0219, 19.41211
299.5040, 23.10620
299.9861, 25.26001
300.4682, 25.26562
300.9503, 24.07422
301.4324, 21.94751
301.9146, 19.28247
302.3967, 17.65234
302.8788, 19.34399
303.3609, 22.28589
303.8430, 23.26001
304.3251, 21.44873
304.8073, 19.12646
305.2894, 18.50854
305.7715, 19.04980
306.2536, 19.33594
306.7357, 18.60278
307.2178, 17.34839
307.7000, 16.12036
308.1821, 15.00977
308.6642, 13.79932
309.1463, 11.97363
309.6284, 10.04688
310.1105, 8.750977
310.5927, 9.295654
311.0748, 10.00464
311.5569, 9.397217
312.0390, 7.454102
312.5211, 5.827637
313.0032, 6.195068
313.4854, 7.010254
313.9675, 6.648193
314.4496, 2.846436
314.9317, 0.7583010
315.4138, 2.328857
315.8959, 2.132324
316.3781, 1.799561
316.8602, 1.978760
317.3423, 2.351318
317.8244, 2.681641
318.3065, 2.892822
318.7886, 3.113281
319.2708, 3.584473
319.7529, 4.103516
320.2350, 4.119385
320.7171, 1.949219
321.1992, 0.3110350
321.6813, 0.8073730
322.1635, 4.905029
322.6456, 8.144043
323.1277, 8.993164
323.6098, 8.521240
324.0919, 8.540771
324.5740, 9.338379
325.0562, 10.60596
325.5383, 12.58350
326.0204, 15.76685
326.5025, 17.66138
326.9846, 16.63306
327.4667, 14.87402
327.9489, 14.73950
328.4310, 17.71973
328.9131, 20.77295
329.3952, 23.73657
329.8773, 26.65039
330.3594, 28.69019
330.8416, 28.85791
331.3237, 28.97412
331.8058, 30.36230
332.2879, 33.92822
332.7700, 37.17651
333.2521, 39.42480
333.7343, 41.13281
334.2164, 44.76440
334.6985, 51.20190
335.1806, 58.02515
335.6627, 64.00317
336.1448, 68.88013
336.6270, 73.24121
337.1091, 76.46143
337.5912, 79.56738
338.0733, 85.06836
338.5554, 93.56421
339.0375, 102.2915
339.5197, 110.0994
340.0018, 116.8384
340.4839, 124.0618
340.9660, 131.5593
341.4481, 139.6067
341.9302, 148.2759
342.4124, 157.5752
342.8945, 167.2822
343.3766, 177.6753
343.8587, 188.5247
344.3408, 199.2334
344.8229, 209.6467
345.3051, 220.2129
345.7872, 231.9148
346.2693, 244.3987
346.7514, 255.4460
347.2335, 264.1758
347.7156, 271.7656
348.1978, 280.6497
348.6799, 290.6572
349.1620, 299.8542
349.6441, 306.8035
350.1262, 312.0330
350.6083, 316.9360
351.0905, 321.9929
351.5726, 325.8472
352.0547, 326.5146
352.5368, 324.5881
353.0189, 321.8870
353.5010, 319.5391
353.9832, 316.9070
354.4653, 313.5906
354.9474, 309.6472
355.4295, 304.0698
355.9116, 294.7217
356.3937, 283.3525
356.8759, 272.6873
357.3580, 264.0725
357.8401, 256.1904
358.3222, 248.4109
358.8043, 240.7803
359.2864, 233.3569
359.7686, 225.1326
360.2507, 217.6155
360.7328, 212.0986
361.2149, 209.7283
361.6970, 207.8582
362.1791, 205.2610
362.6613, 202.5134
363.1434, 200.7908
363.6255, 200.8069
364.1076, 201.5266
364.5897, 202.4038
365.0718, 202.9629
365.5540, 204.9004
366.0361, 209.0547
366.5182, 214.5537
367.0003, 220.3884
367.4824, 226.7441
367.9645, 233.1536
368.4467, 238.8750
368.9288, 243.6697
369.4109, 251.0615
369.8930, 262.3608
370.3751, 275.4648
370.8572, 288.9797
371.3394, 302.6760
371.8215, 316.9658
372.3036, 332.2273
372.7857, 348.2935
373.2678, 364.4778
373.7499, 380.0144
374.2321, 396.9854
374.7142, 416.3389
375.1963, 438.6316
375.6784, 461.3401
376.1605, 483.9705
376.6426, 507.4128
377.1248, 532.5967
377.6069, 560.1973
378.0890, 586.9722
378.5711, 610.6582
379.0532, 632.2202
379.5353, 657.3738
380.0175, 686.8328
380.4996, 718.1597
380.9817, 749.7983
381.4638, 781.5273
381.9459, 812.6724
382.4280, 842.2500
382.9102, 871.8044
383.3923, 903.6284
383.8744, 937.8403
384.3565, 973.0103
384.8386, 1008.478
385.3207, 1044.105
385.8029, 1077.980
386.2850, 1109.940
386.7671, 1141.877
387.2492, 1176.027
387.7313, 1211.917
388.2134, 1247.801
388.6956, 1283.219
389.1777, 1317.594
389.6598, 1350.800
390.1419, 1382.702
390.6240, 1413.165
391.1061, 1442.474
391.5883, 1470.562
392.0704, 1497.499
392.5525, 1523.431
393.0346, 1548.100
393.5167, 1573.152
393.9988, 1597.397
394.4810, 1617.806
394.9631, 1629.297
395.4452, 1639.829
395.9273, 1654.562
396.4094, 1677.190
396.8915, 1694.020
397.3737, 1699.167
397.8558, 1698.219
398.3379, 1698.054
398.8200, 1701.635
399.3021, 1703.454
399.7842, 1702.102
400.2664, 1697.547
400.7485, 1692.442
401.2306, 1686.870
401.7127, 1680.601
402.1948, 1673.443
402.6769, 1665.068
403.1591, 1656.400
403.6412, 1647.426
404.1233, 1638.211
404.6054, 1628.618
405.0875, 1618.548
405.5696, 1608.692
406.0518, 1599.715
406.5339, 1591.722
407.0160, 1582.005
407.4981, 1570.230
407.9802, 1558.158
408.4623, 1548.511
408.9445, 1541.232
409.4266, 1532.567
409.9087, 1521.779
410.3908, 1508.961
410.8729, 1494.229
411.3550, 1477.564
411.8372, 1459.411
412.3193, 1439.353
412.8014, 1417.934
413.2835, 1396.464
413.7656, 1375.165
414.2477, 1352.933
414.7299, 1329.096
415.2120, 1303.398
415.6941, 1275.958
416.1762, 1247.388
416.6583, 1216.204
417.1404, 1179.568
417.6226, 1137.348
418.1047, 1096.034
418.5868, 1059.838
419.0689, 1025.744
419.5510, 990.2603
420.0331, 951.7939
420.5153, 913.0610
420.9974, 876.3774
421.4795, 840.6611
421.9616, 804.4795
422.4437, 765.1235
422.9258, 726.8923
423.4080, 691.8831
423.8901, 660.6055
424.3722, 630.0579
424.8543, 599.9451
425.3364, 570.5085
425.8185, 542.0237
426.3007, 512.9370
426.7828, 486.8142
427.2649, 465.4744
427.7470, 448.0566
428.2291, 427.7117
428.7112, 402.4980
429.1934, 377.9661
429.6755, 356.7668
430.1576, 339.3428
430.6397, 322.9932
431.1218, 307.6829
431.6039, 293.2371
432.0861, 279.3047
432.5682, 265.9587
433.0503, 252.8782
433.5324, 239.5317
434.0145, 226.3816
434.4966, 215.6213
434.9788, 207.3750
435.4609, 199.1653
435.9430, 187.4651
436.4251, 173.9949
436.9072, 163.9392
437.3893, 158.8589
437.8715, 155.7214
438.3536, 151.2607
438.8357, 145.8826
439.3178, 140.7358
439.7999, 135.7732
440.2820, 131.7014
440.7642, 129.7866
441.2463, 130.0544
441.7284, 129.7803
442.2105, 127.0620
442.6926, 123.1558
443.1747, 119.2246
443.6569, 114.6252
444.1390, 111.0872
444.6211, 109.4846
445.1032, 109.4058
445.5853, 109.7017
446.0674, 110.4580
446.5496, 111.3716
447.0317, 112.4048
447.5138, 113.6504
447.9959, 114.8333
448.4780, 115.2971
448.9601, 116.2932
449.4423, 119.3132
449.9244, 125.8630
450.4065, 131.2812
450.8886, 134.3110
451.3707, 135.7285
451.8528, 138.8872
452.3350, 143.8955
452.8171, 150.3130
453.2992, 158.3958
453.7813, 168.1665
454.2634, 177.1101
454.7455, 184.9070
455.2277, 192.7297
455.7098, 202.4661
456.1919, 213.7654
456.6740, 225.2808
457.1561, 236.5508
457.6382, 247.5820
458.1204, 257.5198
458.6025, 266.6934
459.0846, 276.7551
459.5667, 289.0034
460.0488, 302.8713
460.5309, 317.9958
461.0131, 334.5681
461.4952, 351.3474
461.9773, 367.1348
462.4594, 382.3618
462.9415, 397.8862
463.4236, 416.1060
463.9058, 432.5237
464.3879, 446.4624
464.8700, 457.3794
465.3521, 462.9934
465.8342, 461.4988
466.3163, 455.5090
466.7985, 446.5574
467.2806, 435.4600
467.7627, 419.7239
468.2448, 398.0635
468.7269, 372.4590
469.2090, 345.3152
469.6912, 315.7671
470.1733, 285.6472
470.6554, 254.7412
471.1375, 223.2935
471.6196, 194.0361
472.1017, 166.5081
472.5839, 142.2683
473.0660, 122.8301
473.5481, 108.3669
474.0302, 93.10034
474.5123, 76.06689
474.9944, 59.62036
475.4766, 48.13916
475.9587, 40.92529
476.4408, 33.23730
476.9229, 22.17847
477.4050, 10.42114
477.8871, 2.399902
478.3693, 2.247314
478.8514, 5.801514
479.3335, 9.305420
479.8156, 12.57227
480.2977, 15.53320
480.7798, 18.37842
481.2620, 20.41260
481.7441, 21.07007
482.2262, 20.68970
482.7083, 19.78711
483.1904, 18.08398
483.6725, 16.42725
484.1547, 15.05933
484.6368, 14.05200
485.1189, 13.62012
485.6010, 14.22290
486.0831, 15.17334
486.5652, 16.20459
487.0474, 17.94214
487.5295, 18.27319
488.0116, 16.73877
488.4937, 14.12280
488.9758, 11.38574
489.4579, 8.348389
489.9401, 6.149658
490.4222, 5.150635
490.9043, 5.055176
491.3864, 4.696289
491.8685, 4.011719
492.3506, 3.666504
492.8328, 4.509277
493.3149, 6.138916
493.7970, 6.605225
494.2791, 5.571777
494.7612, 4.318115
495.2433, 4.630127
495.7255, 5.779785
496.2076, 6.048828
496.6897, 4.294678
497.1718, 2.175781
497.6539, 0.9501950
498.1360, 0.3842770
498.6182, 1.1475000E-02
499.1003, 0.3212890
499.5824, 0.7341310
500.0645, 0.6923830
500.5466, 6.7139000E-02
501.0287, 0.7749020
501.5109, 1.924805
501.9930, 3.213379
502.4751, 4.429932
502.9572, 5.624268
503.4393, 6.539063
503.9214, 6.388184
504.4036, 5.797119
504.8857, 7.408447
505.3678, 13.28369
505.8499, 17.91772
506.3320, 18.69189
506.8141, 15.29150
507.2963, 12.60376
507.7784, 10.56421
508.2605, 9.411133
508.7426, 9.691162
509.2247, 11.30469
509.7068, 12.71143
510.1890, 13.67651
510.6711, 14.19263
511.1532, 14.16577
511.6353, 13.62256
512.1174, 12.76807
512.5995, 10.94653
513.0817, 9.227539
513.5638, 9.228760
514.0459, 10.90356
514.5280, 12.56494
515.0101, 13.48535
515.4922, 13.73608
515.9744, 13.25635
516.4565, 11.41602
516.9386, 10.14185
517.4207, 10.75854
517.9028, 12.23950
518.3849, 12.88550
518.8671, 11.16553
519.3492, 9.950195
519.8313, 9.947754
520.3134, 11.07251
520.7955, 12.23511
521.2776, 13.36377
521.7598, 14.58398
522.2419, 16.26123
522.7240, 18.82202
523.2061, 19.11621
523.6882, 16.30151
524.1703, 12.87744
524.6525, 12.26587
525.1346, 14.32300
525.6167, 17.00659
526.0988, 20.52344
526.5809, 23.49927
527.0630, 22.41309
527.5452, 17.98315
528.0273, 14.21021
528.5094, 13.54248
528.9915, 14.77612
529.4736, 17.07690
529.9557, 20.44043
530.4379, 23.05493
530.9200, 23.29736
531.4021, 22.49194
531.8842, 21.94775
532.3663, 22.27246
532.8484, 22.38013
533.3306, 22.29077
533.8127, 21.74072
534.2948, 20.17041
534.7769, 15.03687
535.2590, 11.79419
535.7411, 12.53247
536.2233, 17.06152
536.7054, 19.22949
537.1875, 18.25098
537.6696, 16.41162
538.1517, 15.22705
538.6339, 14.81079
539.1160, 13.88013
539.5981, 12.35156
540.0802, 10.68604
540.5623, 9.280762
541.0444, 8.206543
541.5266, 7.635498
542.0087, 7.619629
542.4908, 8.048584
542.9729, 9.125000
543.4550, 10.54175
543.9371, 11.35962
544.4193, 10.62573
544.9014, 9.296387
545.3835, 7.879639
545.8656, 6.437500
546.3477, 6.308594
546.8298, 9.643555
547.3120, 13.62354
547.7941, 15.82886
548.2762, 14.20557
548.7583, 12.93188
549.2404, 12.63062
549.7225, 12.77612
550.2047, 12.44385
550.6868, 11.32373
551.1689, 10.15503
551.6510, 9.344727
552.1331, 8.816895
552.6152, 7.249512
553.0974, 4.256836
553.5795, 1.853760
554.0616, 2.389160
554.5437, 5.223877
555.0258, 5.366699
555.5079, 2.186035
555.9901, 1.116211
556.4722, 1.025879
556.9543, 1.397461
557.4364, 4.133545
557.9185, 7.211182
558.4006, 9.495117
558.8828, 9.484131
559.3649, 7.953857
559.8470, 6.732910
560.3291, 5.744873
