##NAMES=Nifontovite
##RRUFFID=R060685
##IDEAL CHEMISTRY=Ca_3_[BO(OH)_2_]_6_&#183;2H_2_O
##LOCALITY=Fuka mine, Okayama Prefecture, Japan
##OWNER=RRUFF
##SOURCE=Michael Scott
##DESCRIPTION=Colorless prismatic crystal
##STATUS=The identification of this mineral has been confirmed by X-ray diffraction and chemical analysis
##URL=rruff.info/R060685
##MEASURED CHEMISTRY=Ca_3.00_[BO(OH)_2_]_6_Â·2H_2_O ; = darker phase. H_2_O assumed ideal from stoichiometry; B_2_O_3_ estimated by difference
115.738, 0.000
116.220, 245.013
116.702, 666.423
117.184, 1173.729
117.666, 1767.230
118.148, 2468.997
118.630, 3092.950
119.113, 3568.059
119.595, 3884.469
120.077, 4032.314
120.559, 3924.004
121.041, 3682.480
121.523, 3412.983
122.005, 3145.976
122.487, 2924.224
122.969, 2732.814
123.451, 2609.791
123.934, 2462.167
124.416, 2204.653
124.898, 1872.359
125.380, 1526.400
125.862, 1170.578
126.344, 824.318
126.826, 502.703
127.308, 204.091
127.791, 33.189
128.273, 161.185
128.755, 188.988
129.237, 155.457
129.719, 68.513
130.201, 65.616
130.683, 235.809
131.165, 450.388
131.648, 679.717
132.130, 877.104
132.612, 1042.012
133.094, 1192.957
133.576, 1347.503
134.058, 1502.380
134.540, 1633.117
135.022, 1734.362
135.504, 1817.915
135.986, 1910.049
136.469, 1999.039
136.951, 2073.667
137.433, 2128.631
137.915, 2176.320
138.397, 2131.771
138.879, 1950.636
139.361, 1626.012
139.844, 1318.054
140.326, 1023.835
140.808, 750.536
141.290, 510.280
141.772, 292.265
142.254, 128.172
142.736, 37.561
143.218, 43.548
143.700, 59.400
144.182, 77.648
144.665, 106.002
145.147, 173.317
145.629, 293.122
146.111, 440.978
146.593, 604.919
147.075, 849.575
147.557, 986.095
148.040, 975.924
148.522, 825.648
149.004, 672.242
149.486, 461.340
149.968, 277.554
150.450, 186.609
150.932, 141.110
151.414, 135.976
151.896, 121.272
152.378, 97.546
152.861, 37.114
153.343, 24.320
153.825, 7.473
154.307, 40.010
154.789, 45.982
155.271, 100.837
155.753, 109.790
156.235, 78.684
156.718, 22.875
157.200, 39.500
157.682, 116.066
158.164, 221.545
158.646, 399.303
159.128, 580.037
159.610, 728.764
160.092, 848.225
160.574, 916.852
161.057, 899.592
161.539, 813.137
162.021, 734.652
162.503, 687.729
162.985, 663.734
163.467, 655.500
163.949, 646.395
164.431, 664.215
164.913, 727.549
165.396, 835.691
165.878, 962.592
166.360, 1115.139
166.842, 1274.354
167.324, 1415.836
167.806, 1556.119
168.288, 1659.588
168.770, 1703.098
169.253, 1686.359
169.735, 1613.084
170.217, 1458.775
170.699, 1249.768
171.181, 1038.168
171.663, 827.402
172.145, 638.328
172.627, 466.045
173.109, 280.168
173.592, 202.469
174.074, 180.199
174.556, 146.748
175.038, 102.326
175.520, 12.076
176.002, 11.514
176.484, 57.922
176.966, 93.059
177.449, 52.514
177.931, 31.525
178.413, 25.525
178.895, 4.521
179.377, 64.490
179.859, 165.857
180.341, 261.711
180.823, 335.598
181.305, 399.596
181.788, 464.260
182.270, 529.955
182.752, 616.434
183.234, 753.303
183.716, 931.031
184.198, 1107.443
184.680, 1264.783
185.162, 1407.357
185.645, 1565.062
186.127, 1739.930
186.609, 1895.936
187.091, 1988.246
187.573, 2020.666
188.055, 2008.789
188.537, 1951.178
189.019, 1851.508
189.501, 1725.084
189.984, 1567.758
190.466, 1398.449
190.948, 1241.453
191.430, 1095.500
191.912, 975.389
192.394, 895.008
192.876, 852.748
193.358, 814.824
193.840, 770.729
194.323, 739.750
194.805, 778.025
195.287, 893.697
195.769, 1012.842
196.251, 1087.857
196.733, 1118.893
197.215, 1124.523
197.697, 1095.689
198.180, 1049.301
198.662, 1052.682
199.144, 1118.156
199.626, 1183.303
200.108, 1182.895
200.590, 1106.422
201.072, 1061.250
201.554, 1073.494
202.036, 1135.600
202.519, 1196.736
203.001, 1251.910
203.483, 1316.957
203.965, 1407.076
204.447, 1522.303
204.929, 1659.180
205.411, 1812.621
205.893, 1983.109
206.376, 2188.926
206.858, 2438.254
207.340, 2708.305
207.822, 2971.590
208.304, 3227.484
208.786, 3480.723
209.268, 3741.793
209.750, 4016.477
210.232, 4242.248
210.715, 4436.398
211.197, 4565.602
211.679, 4562.104
212.161, 4395.426
212.643, 4174.570
213.125, 3931.609
213.607, 3658.613
214.089, 3398.246
214.572, 3134.809
215.054, 2893.871
215.536, 2733.414
216.018, 2673.453
216.500, 2651.373
216.982, 2638.182
217.464, 2629.418
217.946, 2639.609
218.428, 2666.543
218.911, 2712.262
219.393, 2788.996
219.875, 2919.432
220.357, 3042.785
220.839, 3128.008
221.321, 3179.023
221.803, 3181.854
222.285, 3132.080
222.768, 3033.557
223.250, 2906.451
223.732, 2750.744
224.214, 2567.006
224.696, 2345.412
225.178, 2056.195
225.660, 1799.270
226.142, 1584.219
226.624, 1409.148
227.107, 1277.971
227.589, 1215.094
228.071, 1165.266
228.553, 1083.359
229.035, 943.285
229.517, 820.807
229.999, 730.646
230.481, 671.004
230.964, 605.270
231.446, 536.975
231.928, 458.822
232.410, 358.379
232.892, 202.746
233.374, 88.848
233.856, 48.701
234.338, 85.188
234.820, 92.943
235.303, 65.682
235.785, 20.775
236.267, 26.273
236.749, 86.443
237.231, 126.604
237.713, 134.922
238.195, 106.350
238.677, 87.613
239.160, 77.879
239.642, 78.252
240.124, 93.490
240.606, 141.395
241.088, 172.896
241.570, 171.184
242.052, 128.879
242.534, 95.344
243.016, 77.488
243.499, 64.094
243.981, 37.441
244.463, 14.363
244.945, 58.035
245.427, 78.229
245.909, 62.781
246.391, 73.439
246.873, 125.986
247.355, 194.305
247.838, 231.404
248.320, 215.203
248.802, 205.359
249.284, 225.816
249.766, 290.445
250.248, 334.156
250.730, 349.047
251.212, 348.762
251.695, 357.105
252.177, 375.703
252.659, 402.680
253.141, 436.480
253.623, 473.162
254.105, 533.076
254.587, 627.221
255.069, 740.828
255.551, 840.609
256.034, 922.629
256.516, 1000.188
256.998, 1074.443
257.480, 1133.615
257.962, 1225.410
258.444, 1367.027
258.926, 1531.879
259.408, 1665.994
259.891, 1761.992
260.373, 1836.406
260.855, 1892.125
261.337, 1919.428
261.819, 1956.977
262.301, 2015.340
262.783, 2078.201
263.265, 2093.277
263.747, 2027.221
264.229, 1984.998
264.712, 2024.875
265.194, 2173.727
265.676, 2297.002
266.158, 2358.590
266.640, 2410.180
267.122, 2434.307
267.604, 2513.871
268.086, 2582.777
268.569, 2640.852
269.051, 2647.945
269.533, 2718.242
270.015, 2763.230
270.497, 2808.625
270.979, 2875.619
271.461, 2935.701
271.943, 2990.549
272.426, 3009.064
272.908, 2991.816
273.390, 2936.652
273.872, 2841.230
274.354, 2709.738
274.836, 2545.531
275.318, 2344.814
275.800, 2127.980
276.282, 1890.635
276.765, 1624.750
277.247, 1423.867
277.729, 1302.426
278.211, 1240.260
278.693, 1199.543
279.175, 1184.412
279.657, 1163.752
280.139, 1116.951
280.621, 1043.551
281.104, 968.469
281.586, 890.312
282.068, 815.008
282.550, 751.758
283.032, 700.139
283.514, 664.660
283.996, 653.527
284.478, 665.479
284.961, 678.350
285.443, 694.381
285.925, 704.953
286.407, 681.756
286.889, 623.906
287.371, 580.395
287.853, 590.389
288.335, 645.838
288.818, 686.527
289.300, 700.223
289.782, 710.975
290.264, 756.344
290.746, 833.898
291.228, 930.600
291.710, 1058.348
292.192, 1207.379
292.674, 1326.088
293.156, 1399.555
293.639, 1462.980
294.121, 1566.250
294.603, 1705.461
295.085, 1864.877
295.567, 2066.559
296.049, 2284.498
296.531, 2442.281
297.013, 2522.041
297.496, 2580.330
297.978, 2696.943
298.460, 2856.504
298.942, 3004.848
299.424, 3107.723
299.906, 3184.088
300.388, 3266.502
300.870, 3356.795
301.353, 3445.174
301.835, 3517.566
302.317, 3578.387
302.799, 3643.908
303.281, 3739.527
303.763, 3833.266
304.245, 3891.244
304.727, 3915.264
305.209, 3884.863
305.691, 3766.264
306.174, 3576.291
306.656, 3355.822
307.138, 3106.635
307.620, 2845.713
308.102, 2589.623
308.584, 2338.736
309.066, 2085.854
309.548, 1806.367
310.031, 1523.002
310.513, 1268.176
310.995, 1054.732
311.477, 873.957
311.959, 723.969
312.441, 606.365
312.923, 500.783
313.405, 379.789
313.888, 268.346
314.370, 201.318
314.852, 232.193
315.334, 276.178
315.816, 279.145
316.298, 236.791
316.780, 217.410
317.262, 276.609
317.744, 364.152
318.227, 425.107
318.709, 424.350
319.191, 413.672
319.673, 413.939
320.155, 425.760
320.637, 427.105
321.119, 422.699
321.601, 399.787
322.083, 347.371
322.566, 214.740
323.048, 101.672
323.530, 41.396
324.012, 30.801
324.494, 6.268
324.976, 70.012
325.458, 146.660
325.940, 189.354
326.422, 155.588
326.905, 132.021
327.387, 143.793
327.869, 183.621
328.351, 183.463
328.833, 84.131
329.315, 9.873
329.797, 38.873
330.280, 42.352
330.762, 113.635
331.244, 168.529
331.726, 207.936
332.208, 207.807
332.690, 181.412
333.172, 124.439
333.654, 80.953
334.136, 58.652
334.618, 32.627
335.101, 3.055
335.583, 40.484
336.065, 60.324
336.547, 63.127
337.029, 47.443
337.511, 9.771
337.993, 55.588
338.475, 116.934
338.958, 169.537
339.440, 221.807
339.922, 292.836
340.404, 389.572
340.886, 474.619
341.368, 526.234
341.850, 543.379
342.332, 583.863
342.815, 655.064
343.297, 730.039
343.779, 768.922
344.261, 772.541
344.743, 764.805
345.225, 758.635
345.707, 750.238
346.189, 714.586
346.671, 648.865
347.154, 577.672
347.636, 523.129
348.118, 484.344
348.600, 456.986
349.082, 444.150
349.564, 438.129
350.046, 423.711
350.528, 400.234
351.010, 372.102
351.493, 338.373
351.975, 302.377
352.457, 271.268
352.939, 245.688
353.421, 227.254
353.903, 218.188
354.385, 218.457
354.867, 227.068
355.349, 240.088
355.832, 263.225
356.314, 305.975
356.796, 381.322
357.278, 459.492
357.760, 507.422
358.242, 538.867
358.724, 596.977
359.207, 710.092
359.689, 854.047
360.171, 1009.410
360.653, 1168.014
361.135, 1350.514
361.617, 1576.502
362.099, 1832.508
362.581, 2089.416
363.063, 2332.611
363.546, 2580.473
364.028, 2844.256
364.510, 3130.486
364.992, 3409.092
365.474, 3699.598
365.956, 3971.158
366.438, 4186.172
366.920, 4352.342
367.402, 4452.541
367.885, 4468.014
368.367, 4387.475
368.849, 4307.172
369.331, 4267.596
369.813, 4207.217
370.295, 4072.701
370.777, 3826.344
371.259, 3560.451
371.741, 3266.023
372.224, 2949.621
372.706, 2692.840
373.188, 2521.705
373.670, 2377.723
374.152, 2218.693
374.634, 2033.752
375.116, 1872.852
375.598, 1737.412
376.081, 1629.863
376.563, 1560.684
377.045, 1538.848
377.527, 1525.443
378.009, 1487.953
378.491, 1424.158
378.973, 1418.434
379.455, 1491.371
379.938, 1593.525
380.420, 1631.066
380.902, 1605.064
381.384, 1589.471
381.866, 1618.461
382.348, 1687.119
382.830, 1774.539
383.312, 1880.219
383.794, 1998.977
384.276, 2136.459
384.759, 2285.662
385.241, 2417.264
385.723, 2512.574
386.205, 2587.527
386.687, 2671.494
387.169, 2760.252
387.651, 2829.387
388.134, 2866.703
388.616, 2869.633
389.098, 2831.543
389.580, 2725.830
390.062, 2608.531
390.544, 2529.076
391.026, 2477.068
391.508, 2418.445
391.990, 2313.172
392.473, 2209.119
392.955, 2143.736
393.437, 2135.369
393.919, 2143.539
394.401, 2163.078
394.883, 2188.928
395.365, 2210.480
395.847, 2223.607
396.329, 2232.461
396.812, 2234.855
397.294, 2225.367
397.776, 2230.137
398.258, 2265.461
398.740, 2310.803
399.222, 2342.828
399.704, 2328.400
400.186, 2337.000
400.668, 2385.035
401.151, 2472.943
401.633, 2562.635
402.115, 2660.271
402.597, 2753.830
403.079, 2833.613
403.561, 2890.850
404.043, 2957.225
404.525, 3033.811
405.008, 3121.479
405.490, 3219.279
405.972, 3320.445
406.454, 3446.498
406.936, 3614.773
407.418, 3828.191
407.900, 4056.020
408.382, 4292.256
408.865, 4546.750
409.347, 4829.566
409.829, 5139.422
410.311, 5500.756
410.793, 5932.072
411.275, 6423.248
411.757, 6928.383
412.239, 7448.471
412.721, 7994.236
413.203, 8590.590
413.686, 9220.326
414.168, 9830.051
414.650, 10433.730
415.132, 10977.129
415.614, 11429.602
416.096, 11779.562
416.578, 11973.453
417.060, 11897.391
417.543, 11674.557
418.025, 11429.438
418.507, 11176.660
418.989, 10922.668
419.471, 10673.721
419.953, 10424.676
420.435, 10158.781
420.917, 9849.410
421.400, 9543.273
421.882, 9269.852
422.364, 9041.344
422.846, 8807.008
423.328, 8561.074
423.810, 8300.062
424.292, 8021.504
424.774, 7727.867
425.256, 7409.170
425.738, 7049.055
426.221, 6647.477
426.703, 6291.779
427.185, 6002.605
427.667, 5739.953
428.149, 5470.406
428.631, 5175.312
429.113, 4928.842
429.595, 4733.459
430.078, 4588.541
430.560, 4504.400
431.042, 4502.281
431.524, 4469.389
432.006, 4341.574
432.488, 4120.986
432.970, 3891.328
433.452, 3648.061
433.935, 3415.143
434.417, 3228.588
434.899, 3084.371
435.381, 2953.939
435.863, 2823.621
436.345, 2704.826
436.827, 2621.342
437.309, 2572.273
437.791, 2542.035
438.274, 2529.508
438.756, 2525.639
439.238, 2518.441
439.720, 2509.842
440.202, 2487.994
440.684, 2448.010
441.166, 2387.225
441.648, 2298.637
442.130, 2159.680
442.613, 2007.107
443.095, 1862.945
443.577, 1732.607
444.059, 1594.812
444.541, 1433.678
445.023, 1265.168
445.505, 1105.986
445.987, 940.021
446.470, 809.363
446.952, 732.152
447.434, 707.549
447.916, 688.141
448.398, 691.605
448.880, 683.865
449.362, 644.709
449.844, 564.568
450.327, 471.270
450.809, 348.930
451.291, 223.457
451.773, 155.322
452.255, 158.330
452.737, 168.242
453.219, 161.055
453.701, 136.855
454.183, 103.387
454.665, 56.551
455.148, 15.727
455.630, 8.967
456.112, 30.543
456.594, 42.664
457.076, 32.822
457.558, 11.244
458.040, 5.949
458.522, 19.086
459.005, 31.518
459.487, 45.785
459.969, 60.166
460.451, 73.500
460.933, 86.342
461.415, 94.396
461.897, 97.734
462.379, 93.648
462.862, 77.471
463.344, 23.672
463.826, 21.973
464.308, 28.672
464.790, 4.736
465.272, 25.469
465.754, 5.488
466.236, 23.617
466.718, 39.926
467.201, 29.635
467.683, 20.566
468.165, 11.693
468.647, 4.594
469.129, 4.570
469.611, 16.832
470.093, 27.146
470.575, 28.182
471.057, 17.219
471.540, 17.674
472.022, 35.895
472.504, 52.568
472.986, 37.332
473.468, 12.896
473.950, 44.770
474.432, 39.512
474.914, 12.146
475.397, 0.324
475.879, 3.258
476.361, 10.426
476.843, 12.174
477.325, 12.061
477.807, 18.723
478.289, 33.131
478.771, 50.709
479.254, 73.439
479.736, 95.482
480.218, 105.842
480.700, 92.877
481.182, 72.096
481.664, 63.908
482.146, 66.031
482.628, 39.215
483.110, 53.201
483.592, 12.107
484.075, 15.523
484.557, 30.467
485.039, 5.254
485.521, 24.369
486.003, 27.746
486.485, 30.016
486.967, 68.744
487.449, 40.232
487.931, 78.330
488.414, 89.797
488.896, 113.391
489.378, 110.611
489.860, 115.941
490.342, 147.617
490.824, 164.672
491.306, 158.742
491.789, 182.973
492.271, 165.271
492.753, 150.682
493.235, 139.938
493.717, 137.258
494.199, 143.443
494.681, 158.934
495.163, 193.154
495.645, 248.256
496.128, 292.652
496.610, 280.609
497.092, 240.336
497.574, 220.096
498.056, 261.389
498.538, 300.697
499.020, 283.199
499.502, 226.164
499.984, 193.113
500.467, 229.207
500.949, 281.578
501.431, 323.680
501.913, 357.348
502.395, 370.104
502.877, 328.895
503.359, 279.018
503.841, 274.793
504.323, 351.818
504.806, 418.377
505.288, 457.719
505.770, 472.357
506.252, 480.998
506.734, 480.398
507.216, 480.543
507.698, 480.568
508.181, 479.680
508.663, 519.262
509.145, 612.838
509.627, 714.746
510.109, 764.955
510.591, 769.525
511.073, 763.338
511.555, 757.037
512.037, 749.586
512.519, 734.338
513.002, 713.816
513.484, 703.912
513.966, 716.057
514.448, 743.562
514.930, 784.283
515.412, 845.766
515.894, 893.734
516.376, 887.271
516.859, 861.957
517.341, 870.139
517.823, 924.213
518.305, 1013.082
518.787, 1164.855
519.269, 1377.178
519.751, 1506.586
520.233, 1472.279
520.716, 1443.029
521.198, 1522.627
521.680, 1772.117
522.162, 1937.215
522.644, 1978.941
523.126, 1976.256
523.608, 2078.143
524.090, 2299.279
524.572, 2462.059
525.055, 2494.953
525.537, 2436.939
526.019, 2375.076
526.501, 2311.533
526.983, 2309.629
527.465, 2466.678
527.947, 2705.393
528.429, 2891.428
528.911, 2995.162
529.394, 3076.504
529.876, 3140.799
530.358, 3222.535
530.840, 3379.254
531.322, 3712.424
531.804, 4044.639
532.286, 4285.611
532.768, 4443.848
533.250, 4638.473
533.733, 4918.242
534.215, 5219.229
534.697, 5508.369
535.179, 5790.877
535.661, 6056.723
536.143, 6304.463
536.625, 6541.066
537.107, 6766.975
537.589, 6990.027
538.072, 7180.580
538.554, 7332.801
539.036, 7452.457
539.518, 7553.932
540.000, 7635.064
540.482, 7679.617
540.964, 7670.215
541.446, 7619.285
541.929, 7524.182
542.411, 7372.496
542.893, 7207.566
543.375, 7085.262
543.857, 6982.412
544.339, 6860.939
544.821, 6698.785
545.303, 6523.826
545.786, 6351.406
546.268, 6184.908
546.750, 6046.336
547.232, 5933.961
547.714, 5845.541
548.196, 5775.818
548.678, 5714.416
549.160, 5701.604
549.643, 5739.205
550.125, 5814.172
550.607, 5912.074
551.089, 6040.010
551.571, 6185.689
552.053, 6347.051
552.535, 6523.357
553.017, 6719.709
553.499, 6937.121
553.982, 7151.000
554.464, 7379.354
554.946, 7594.689
555.428, 7691.738
555.910, 7669.020
556.392, 7590.258
556.874, 7514.812
557.356, 7421.098
557.838, 7268.586
558.321, 7032.480
558.803, 6771.066
559.285, 6501.562
559.767, 6233.717
560.249, 5990.600
560.731, 5793.609
561.213, 5606.809
561.695, 5395.355
562.177, 5157.164
562.660, 5001.688
563.142, 4989.541
563.624, 5010.059
564.106, 5001.578
564.588, 4938.504
565.070, 4913.350
565.552, 4929.295
566.034, 4979.924
566.516, 5057.918
566.999, 5163.939
567.481, 5295.674
567.963, 5462.832
568.445, 5648.475
568.927, 5832.652
569.409, 6011.549
569.891, 6165.963
570.373, 6285.734
570.856, 6370.742
571.338, 6430.791
571.820, 6472.527
572.302, 6436.160
572.784, 6264.186
573.266, 6005.309
573.748, 5708.215
574.230, 5372.498
574.713, 5017.875
575.195, 4639.029
575.677, 4245.676
576.159, 3863.207
576.641, 3467.357
577.123, 3119.377
577.605, 2848.809
578.087, 2658.762
578.570, 2432.584
579.052, 2155.496
579.534, 1875.762
580.016, 1625.424
580.498, 1405.172
580.980, 1232.012
581.462, 1113.504
581.944, 1027.777
582.426, 953.934
582.909, 889.359
583.391, 828.477
583.873, 776.482
584.355, 720.438
584.837, 642.637
585.319, 548.139
585.801, 460.857
586.283, 389.908
586.765, 329.523
587.248, 273.947
587.730, 218.969
588.212, 184.682
588.694, 198.842
589.176, 218.977
589.658, 207.801
590.140, 142.328
590.622, 98.570
591.104, 90.125
591.587, 102.471
592.069, 105.264
592.551, 98.967
593.033, 80.750
593.515, 39.791
593.997, 10.932
594.479, 30.213
594.961, 19.188
595.443, 5.031
595.926, 14.676
596.408, 29.902
596.890, 17.389
597.372, 39.715
597.854, 69.488
598.336, 2.172
598.818, 113.107
599.300, 185.387
599.783, 168.318
600.265, 149.023
600.747, 153.426
601.229, 169.746
601.711, 161.041
602.193, 203.342
602.675, 137.602
603.157, 98.182
603.640, 83.652
604.122, 168.379
604.604, 125.053
605.086, 133.143
605.568, 143.396
606.050, 82.225
606.532, 152.824
607.014, 92.893
607.497, 85.119
607.979, 53.523
608.461, 73.600
608.943, 77.746
609.425, 30.232
609.907, 11.324
610.389, 37.369
610.871, 4.303
611.353, 53.303
611.836, 67.719
612.318, 57.580
612.800, 54.395
613.282, 62.277
613.764, 45.379
614.246, 7.588
614.728, 70.828
615.210, 126.531
615.692, 174.719
616.175, 215.338
616.657, 245.000
617.139, 277.805
617.621, 333.709
618.103, 411.246
618.585, 504.688
619.067, 623.893
619.549, 744.795
620.031, 827.889
620.514, 884.900
620.996, 959.891
621.478, 1079.703
621.960, 1219.342
622.442, 1366.420
622.924, 1518.430
623.406, 1674.033
623.888, 1830.246
624.370, 1991.523
624.853, 2158.750
625.335, 2323.197
625.817, 2517.863
626.299, 2762.584
626.781, 3014.188
627.263, 3203.340
627.745, 3327.322
