##NAMES=Pezzottaite
##RRUFFID=R060583
##IDEAL CHEMISTRY=CsLiBe_2_Al_2_Si_6_O_18_
##LOCALITY=Ambatovita, Mandrosonoro area, Fianarantsoa Province, Madagascar
##OWNER=RRUFF
##SOURCE=Michael Scott
##DESCRIPTION=Pink thin tabular hexagonal plate
##STATUS=The identification of this mineral has been confirmed by X-ray diffraction.
##URL=rruff.info/R060583
106.094, 0.000
106.576, 42.466
107.058, 292.961
107.540, 644.887
108.022, 1040.935
108.504, 1516.202
108.986, 2077.588
109.468, 2789.683
109.951, 3467.749
110.433, 4165.318
110.915, 4839.562
111.397, 5341.246
111.879, 5628.442
112.361, 5761.217
112.843, 5765.465
113.326, 5679.242
113.808, 5448.208
114.290, 4966.724
114.772, 4265.081
115.254, 3589.021
115.736, 2986.876
116.218, 2454.345
116.700, 1965.579
117.182, 1576.550
117.664, 1241.848
118.147, 944.652
118.629, 679.661
119.111, 451.449
119.593, 260.461
120.075, 109.183
120.557, 4.091
121.039, 36.162
121.521, 36.834
122.004, 26.904
122.486, 27.835
122.968, 34.662
123.450, 41.365
123.932, 47.949
124.414, 54.419
124.896, 60.782
125.378, 67.045
125.860, 73.218
126.343, 79.305
126.825, 32.932
127.307, 178.738
127.789, 356.866
128.271, 562.687
128.753, 790.272
129.235, 1046.656
129.717, 1353.944
130.200, 1687.500
130.682, 2040.647
131.164, 2445.280
131.646, 2935.627
132.128, 3452.237
132.610, 3975.982
133.092, 4504.165
133.574, 4866.683
134.057, 4946.714
134.539, 4755.716
135.021, 4440.039
135.503, 3968.642
135.985, 3417.663
136.467, 2932.710
136.949, 2491.065
137.431, 2196.800
137.913, 2079.678
138.396, 1962.588
138.878, 1845.576
139.360, 1728.614
139.842, 1611.699
140.324, 1494.828
140.806, 1377.997
141.288, 1261.186
141.770, 1144.439
142.253, 1027.732
142.735, 911.036
143.217, 728.715
143.699, 624.521
144.181, 533.335
144.663, 452.989
145.145, 386.601
145.627, 341.188
146.109, 323.996
146.592, 317.183
147.074, 320.553
147.556, 338.173
148.038, 360.895
148.520, 404.021
149.002, 457.817
149.484, 477.830
149.966, 438.180
150.449, 372.864
150.931, 296.302
151.413, 173.715
151.895, 69.291
152.377, 3.283
152.859, 55.735
153.341, 90.547
153.823, 108.349
154.305, 108.777
154.788, 91.702
155.270, 53.854
155.752, 1.460
156.234, 66.697
156.716, 150.341
157.198, 241.221
157.680, 332.497
158.162, 432.899
158.645, 551.389
159.127, 707.964
159.609, 867.934
160.091, 1011.860
160.573, 1129.212
161.055, 1269.327
161.537, 1454.701
162.019, 1673.160
162.501, 1906.500
162.984, 2146.253
163.466, 2399.269
163.948, 2655.576
164.430, 2892.922
164.912, 3198.661
165.394, 3823.408
165.876, 4580.320
166.358, 4990.106
166.840, 4593.868
167.323, 3853.459
167.805, 3152.082
168.287, 2528.044
168.769, 2035.278
169.251, 1725.648
169.733, 1580.338
170.215, 1507.425
170.697, 1453.902
171.180, 1438.648
171.662, 1488.873
172.144, 1678.928
172.626, 1886.727
173.108, 1982.133
173.590, 1970.118
174.072, 1963.252
174.554, 2035.773
175.036, 2176.136
175.519, 2363.176
176.001, 2634.423
176.483, 2930.036
176.965, 3187.540
177.447, 3411.143
177.929, 3562.943
178.411, 3613.272
178.893, 3563.656
179.376, 3424.837
179.858, 3147.741
180.340, 2789.281
180.822, 2469.390
181.304, 2192.872
181.786, 1948.087
182.268, 1727.943
182.750, 1527.735
183.232, 1326.552
183.715, 1091.978
184.197, 844.279
184.679, 639.907
185.161, 487.351
185.643, 372.254
186.125, 277.771
186.607, 202.642
187.089, 137.807
187.572, 72.223
188.054, 8.856
188.536, 31.633
189.018, 41.338
189.500, 30.261
189.982, 17.486
190.464, 2.332
190.946, 6.149
191.428, 5.687
191.911, 35.803
192.393, 56.019
192.875, 56.806
193.357, 43.704
193.839, 36.326
194.321, 35.162
194.803, 36.834
195.285, 41.702
195.768, 50.041
196.250, 47.461
196.732, 27.108
197.214, 9.273
197.696, 19.753
198.178, 23.729
198.660, 46.645
199.142, 139.612
199.624, 227.088
200.107, 309.380
200.589, 370.905
201.071, 459.215
201.553, 536.785
202.035, 613.910
202.517, 705.977
202.999, 770.511
203.481, 860.865
203.964, 965.292
204.446, 1107.462
204.928, 1291.093
205.410, 1481.794
205.892, 1673.189
206.374, 1875.141
206.856, 2107.316
207.338, 2372.858
207.820, 2657.862
208.303, 2950.632
208.785, 3243.753
209.267, 3591.819
209.749, 4019.299
210.231, 4481.609
210.713, 4861.321
211.195, 5162.819
211.677, 5376.871
212.160, 5487.555
212.642, 5473.623
213.124, 5443.642
213.606, 5425.844
214.088, 5396.854
214.570, 5262.164
215.052, 5019.491
215.534, 4676.935
216.016, 4209.294
216.499, 3553.162
216.981, 2969.717
217.463, 2483.576
217.945, 2092.362
218.427, 1773.366
218.909, 1531.456
219.391, 1354.796
219.873, 1235.157
220.355, 1181.083
220.838, 1165.314
221.320, 1194.423
221.802, 1264.373
222.284, 1325.227
222.766, 1375.401
223.248, 1418.753
223.730, 1460.308
224.212, 1503.932
224.695, 1536.890
225.177, 1554.315
225.659, 1556.061
226.141, 1555.454
226.623, 1532.652
227.105, 1426.333
227.587, 1407.639
228.069, 1367.662
228.551, 1307.529
229.034, 1166.977
229.516, 1130.260
229.998, 1051.914
230.480, 971.849
230.962, 949.712
231.444, 820.785
231.926, 797.708
232.408, 732.367
232.891, 686.352
233.373, 598.451
233.855, 523.472
234.337, 454.915
234.819, 343.283
235.301, 262.323
235.783, 214.800
236.265, 193.985
236.747, 189.864
237.230, 188.595
237.712, 255.837
238.194, 345.773
238.676, 430.192
239.158, 509.387
239.640, 567.760
240.122, 653.016
240.604, 729.971
241.087, 813.578
241.569, 899.286
242.051, 981.654
242.533, 1067.815
243.015, 1168.726
243.497, 1282.210
243.979, 1414.152
244.461, 1571.069
244.943, 1765.925
245.426, 1940.871
245.908, 2073.413
246.390, 2193.525
246.872, 2370.111
247.354, 2646.546
247.836, 2914.675
248.318, 3155.152
248.800, 3412.914
249.283, 3505.917
249.765, 3403.729
250.247, 3149.262
250.729, 2814.338
251.211, 2340.356
251.693, 1883.443
252.175, 1497.500
252.657, 1185.741
253.139, 937.106
253.622, 763.709
254.104, 650.792
254.586, 564.997
255.068, 510.316
255.550, 476.848
256.032, 460.033
256.514, 471.803
256.996, 487.519
257.478, 501.413
257.961, 518.864
258.443, 550.420
258.925, 589.069
259.407, 654.443
259.889, 758.443
260.371, 914.155
260.853, 1070.108
261.335, 1219.761
261.818, 1371.771
262.300, 1549.853
262.782, 1784.615
263.264, 1986.308
263.746, 2125.111
264.228, 2213.472
264.710, 2182.057
265.192, 1999.353
265.674, 1711.190
266.157, 1430.608
266.639, 1150.792
267.121, 895.437
267.603, 676.035
268.085, 491.246
268.567, 342.310
269.049, 232.921
269.531, 155.717
270.013, 92.973
270.496, 46.401
270.978, 9.513
271.460, 20.392
271.942, 43.449
272.424, 59.740
272.906, 68.384
273.388, 70.982
273.871, 72.281
274.353, 73.946
274.835, 67.895
275.317, 46.139
275.799, 5.713
276.281, 25.319
276.763, 44.738
277.245, 59.175
277.727, 82.172
278.210, 113.726
278.692, 144.064
279.174, 166.566
279.656, 180.876
280.138, 201.607
280.620, 230.375
281.102, 265.286
281.584, 302.580
282.066, 341.804
282.549, 382.641
283.031, 424.436
283.513, 467.740
283.995, 515.080
284.477, 563.260
284.959, 620.856
285.441, 703.732
285.923, 812.509
286.405, 930.317
286.888, 1052.558
287.370, 1177.916
287.852, 1292.234
288.334, 1393.974
288.816, 1487.284
289.298, 1599.595
289.780, 1727.209
290.263, 1791.005
290.745, 1717.923
291.227, 1539.935
291.709, 1385.098
292.191, 1262.884
292.673, 1157.661
293.155, 1039.568
293.637, 913.664
294.119, 820.532
294.602, 797.558
295.084, 821.382
295.566, 823.879
296.048, 797.351
296.530, 775.415
297.012, 800.809
297.494, 866.180
297.976, 943.414
298.458, 1015.994
298.941, 1091.340
299.423, 1180.997
299.905, 1284.554
300.387, 1403.976
300.869, 1536.968
301.351, 1685.804
301.833, 1856.779
302.315, 2046.916
302.797, 2260.606
303.280, 2507.387
303.762, 2791.175
304.244, 3076.608
304.726, 3355.036
305.208, 3614.523
305.690, 3833.898
306.172, 4048.124
306.654, 4193.184
307.137, 4211.850
307.619, 4102.143
308.101, 3892.214
308.583, 3551.861
309.065, 3134.684
309.547, 2710.107
310.029, 2269.656
310.511, 1864.368
310.993, 1506.301
311.476, 1199.630
311.958, 978.502
312.440, 926.722
312.922, 947.710
313.404, 937.207
313.886, 828.182
314.368, 706.310
314.850, 613.536
315.333, 547.289
315.815, 486.434
316.297, 419.105
316.779, 354.264
317.261, 299.519
317.743, 250.856
318.225, 218.007
318.707, 215.193
319.190, 235.695
319.672, 246.433
320.154, 227.213
320.636, 200.992
321.118, 181.924
321.600, 167.423
322.082, 166.809
322.564, 188.692
323.046, 227.440
323.529, 263.750
324.011, 293.542
324.493, 320.450
324.975, 345.626
325.457, 362.296
325.939, 387.384
326.421, 439.927
326.903, 502.833
327.385, 532.864
327.868, 509.938
328.350, 468.810
328.832, 418.866
329.314, 352.965
329.796, 289.750
330.278, 225.657
330.760, 166.614
331.242, 121.449
331.724, 99.940
332.207, 79.934
332.689, 55.468
333.171, 27.229
333.653, 2.415
334.135, 42.340
334.617, 80.777
335.099, 99.234
335.582, 89.973
336.064, 77.762
336.546, 68.339
337.028, 61.666
337.510, 58.879
337.992, 62.322
338.474, 66.172
338.956, 62.724
339.438, 50.168
339.921, 39.646
340.403, 36.452
340.885, 38.435
341.367, 26.258
341.849, 3.550
342.331, 35.297
342.813, 51.512
343.295, 52.378
343.777, 56.969
344.260, 71.148
344.742, 90.800
345.224, 104.200
345.706, 111.114
346.188, 115.696
346.670, 109.453
347.152, 99.661
347.634, 117.879
348.116, 162.740
348.599, 186.872
349.081, 259.910
349.563, 321.089
350.045, 371.029
350.527, 376.088
351.009, 439.108
351.491, 478.904
351.973, 530.195
352.456, 594.030
352.938, 710.545
353.420, 864.217
353.902, 1007.116
354.384, 1131.585
354.866, 1224.284
355.348, 1260.495
355.830, 1230.746
356.312, 1197.239
356.795, 1220.997
357.277, 1271.315
357.759, 1297.328
358.241, 1267.965
358.723, 1213.002
359.205, 1150.970
359.687, 1082.846
360.169, 1003.023
360.652, 893.799
361.134, 777.038
361.616, 675.614
362.098, 600.370
362.580, 537.968
363.062, 481.321
363.544, 431.192
364.026, 396.497
364.509, 390.127
364.991, 393.669
365.473, 394.881
365.955, 374.991
366.437, 371.582
366.919, 396.297
367.401, 443.376
367.883, 489.750
368.365, 547.687
368.848, 593.684
369.330, 616.297
369.812, 595.683
370.294, 586.668
370.776, 595.209
371.258, 613.819
371.740, 626.740
372.222, 623.177
372.704, 630.046
373.187, 657.409
373.669, 708.805
374.151, 763.643
374.633, 823.200
375.115, 883.728
375.597, 940.186
376.079, 989.797
376.561, 1042.595
377.043, 1098.954
377.526, 1158.148
378.008, 1236.262
378.490, 1335.001
378.972, 1448.458
379.454, 1568.455
379.936, 1694.092
380.418, 1834.086
380.901, 1985.893
381.383, 2157.960
381.865, 2386.711
382.347, 2669.837
382.829, 2971.501
383.311, 3248.227
383.793, 3516.729
384.275, 3831.066
384.757, 4221.955
385.240, 4616.219
385.722, 4973.408
386.204, 5273.016
386.686, 5408.991
387.168, 5273.423
387.650, 4962.378
388.132, 4564.575
388.614, 4076.148
389.096, 3614.394
389.579, 3252.917
390.061, 2988.818
390.543, 2821.689
391.025, 2769.490
391.507, 2794.237
391.989, 2890.057
392.471, 3053.687
392.953, 3223.751
393.435, 3365.441
393.918, 3504.119
394.400, 3663.021
394.882, 3840.408
395.364, 4044.751
395.846, 4280.250
396.328, 4546.497
396.810, 4831.643
397.292, 5122.694
397.775, 5440.830
398.257, 5799.022
398.739, 6215.308
399.221, 6638.886
399.703, 7072.194
400.185, 7510.697
400.667, 7952.936
401.149, 8457.249
401.632, 8891.297
402.114, 9216.403
402.596, 9428.409
403.078, 9545.704
403.560, 9530.265
404.042, 9463.305
404.524, 9465.116
405.006, 9592.396
405.488, 9597.045
405.971, 9437.875
406.453, 9108.911
406.935, 8550.388
407.417, 7720.722
407.899, 6810.870
408.381, 5919.497
408.863, 5051.371
409.345, 4307.808
409.828, 3717.322
410.310, 3250.240
410.792, 2876.717
411.274, 2591.387
411.756, 2370.138
412.238, 2207.361
412.720, 2094.157
413.202, 2013.972
413.684, 1919.273
414.167, 1873.690
414.649, 1816.168
415.131, 1747.381
415.613, 1633.514
416.095, 1577.854
416.577, 1498.866
417.059, 1418.915
417.541, 1371.423
418.023, 1264.108
418.506, 1216.111
418.988, 1144.437
419.470, 1083.598
419.952, 999.270
420.434, 922.203
420.916, 868.615
421.398, 775.919
421.880, 697.051
422.362, 631.108
422.845, 577.904
423.327, 537.387
423.809, 516.198
424.291, 494.724
424.773, 468.763
425.255, 442.439
425.737, 422.449
426.220, 421.607
426.702, 409.819
427.184, 375.803
427.666, 317.319
428.148, 273.360
428.630, 250.772
429.112, 233.151
429.594, 203.945
430.076, 158.022
430.559, 121.688
431.041, 100.202
431.523, 89.485
432.005, 79.615
432.487, 71.197
432.969, 58.929
433.451, 32.956
433.933, 2.684
434.415, 17.365
434.898, 5.284
435.380, 13.941
435.862, 9.933
436.344, 10.815
436.826, 22.177
437.308, 3.614
437.790, 38.781
438.272, 37.297
438.754, 0.642
439.237, 38.912
439.719, 63.589
440.201, 75.346
440.683, 75.656
441.165, 57.969
441.647, 38.843
442.129, 26.799
442.612, 21.161
443.094, 19.015
443.576, 28.963
444.058, 34.821
444.540, 32.900
445.022, 31.305
445.504, 6.562
445.986, 15.299
446.468, 44.649
446.951, 85.922
447.433, 124.297
447.915, 159.932
448.397, 184.627
448.879, 224.111
449.361, 258.768
449.843, 293.474
450.325, 336.398
450.807, 365.190
451.290, 408.720
451.772, 446.743
452.254, 487.550
452.736, 521.183
453.218, 565.266
453.700, 641.072
454.182, 717.193
454.664, 786.600
455.147, 846.845
455.629, 880.508
456.111, 885.237
456.593, 867.299
457.075, 833.036
457.557, 787.369
458.039, 731.350
458.521, 664.896
459.003, 588.894
459.486, 496.861
459.968, 394.020
460.450, 302.372
460.932, 240.863
461.414, 195.459
461.896, 153.178
462.378, 111.566
462.860, 76.151
463.342, 51.323
463.825, 34.463
464.307, 22.143
464.789, 9.675
465.271, 4.945
465.753, 16.662
466.235, 45.531
466.717, 61.874
467.199, 41.979
467.681, 22.744
468.164, 28.179
468.646, 83.797
469.128, 121.473
469.610, 129.146
470.092, 119.914
470.574, 126.897
471.056, 154.148
471.539, 187.282
472.021, 223.258
472.503, 262.478
472.985, 292.866
473.467, 314.214
473.949, 327.249
474.431, 330.310
474.913, 324.341
475.395, 315.972
475.878, 301.592
476.360, 292.247
476.842, 315.240
477.324, 366.205
477.806, 413.620
478.288, 428.990
478.770, 433.144
479.252, 454.283
479.734, 468.253
480.217, 509.309
480.699, 543.781
481.181, 572.029
481.663, 575.411
482.145, 610.900
482.627, 633.513
483.109, 655.598
483.591, 695.590
484.073, 702.571
484.556, 742.275
485.038, 768.918
485.520, 801.530
486.002, 821.194
486.484, 844.852
486.966, 881.458
487.448, 896.488
487.931, 903.247
488.413, 960.769
488.895, 1012.087
489.377, 1039.032
489.859, 1043.773
490.341, 1062.796
490.823, 1099.212
491.305, 1140.998
491.787, 1176.591
492.270, 1206.169
492.752, 1251.307
493.234, 1322.058
493.716, 1392.321
494.198, 1420.146
494.680, 1410.123
495.162, 1386.387
495.644, 1359.709
496.126, 1323.819
496.609, 1270.009
497.091, 1195.150
497.573, 1107.162
498.055, 1003.208
498.537, 892.130
499.019, 783.810
499.501, 679.726
499.983, 578.449
500.466, 468.735
500.948, 360.030
501.430, 274.001
501.912, 231.112
502.394, 199.074
502.876, 166.865
503.358, 134.655
503.840, 107.777
504.322, 90.512
504.805, 74.762
505.287, 52.363
505.769, 17.856
506.251, 8.070
506.733, 21.410
507.215, 25.825
507.697, 30.866
508.179, 36.816
508.661, 41.732
509.144, 45.569
509.626, 47.769
510.108, 42.944
510.590, 29.980
511.072, 19.023
511.554, 20.301
512.036, 31.321
512.518, 49.417
513.000, 88.725
513.483, 112.915
513.965, 71.073
514.447, 17.051
514.929, 91.243
515.411, 109.059
515.893, 112.331
516.375, 125.583
516.857, 151.924
517.340, 184.407
517.822, 210.632
518.304, 247.382
518.786, 309.846
519.268, 350.995
519.750, 374.680
520.232, 428.231
520.714, 474.557
521.196, 514.038
521.679, 526.051
522.161, 573.169
522.643, 608.817
523.125, 671.759
523.607, 718.130
524.089, 745.303
524.571, 764.053
525.054, 787.309
525.536, 813.445
526.018, 833.413
526.500, 842.417
526.982, 847.929
527.464, 857.323
527.946, 871.948
528.428, 897.854
528.910, 947.372
529.393, 1004.420
529.875, 1050.542
530.357, 1083.334
530.839, 1127.311
531.321, 1205.648
531.803, 1295.735
532.285, 1377.181
532.767, 1447.613
533.250, 1505.051
533.732, 1544.302
534.214, 1570.343
534.696, 1595.840
535.178, 1632.393
535.660, 1655.312
536.142, 1656.838
536.624, 1636.107
537.106, 1606.624
537.589, 1569.403
538.071, 1520.683
538.553, 1455.419
539.035, 1372.604
539.517, 1284.507
539.999, 1191.985
540.481, 1096.440
540.963, 995.809
541.445, 894.031
541.928, 805.589
542.410, 746.752
542.892, 701.993
543.374, 648.729
543.856, 587.267
544.338, 530.814
544.820, 490.509
545.302, 458.435
545.784, 427.394
546.267, 393.797
546.749, 365.046
547.231, 340.527
547.713, 323.141
548.195, 317.433
548.677, 352.297
549.159, 367.304
549.641, 339.526
550.124, 274.378
550.606, 237.924
551.088, 236.933
551.570, 252.667
552.052, 278.359
552.534, 316.334
553.016, 343.986
553.498, 357.462
553.981, 369.909
554.463, 402.017
554.945, 450.636
555.427, 495.014
555.909, 524.941
556.391, 551.774
556.873, 594.414
557.355, 649.628
557.838, 702.891
558.320, 740.084
558.802, 775.153
559.284, 824.470
559.766, 892.195
560.248, 950.430
560.730, 982.065
561.212, 1001.040
561.694, 1020.122
562.177, 1058.135
562.659, 1075.101
563.141, 1051.200
563.623, 1006.151
564.105, 988.637
564.587, 1011.525
565.069, 1036.753
565.551, 1054.678
566.033, 1064.688
566.516, 1057.861
566.998, 1031.684
567.480, 999.983
567.962, 971.479
568.444, 947.472
568.926, 934.551
569.408, 936.852
569.890, 934.455
570.372, 894.754
570.855, 830.954
571.337, 779.582
571.819, 775.812
572.301, 782.750
572.783, 769.337
573.265, 738.599
573.747, 706.878
574.229, 668.863
574.711, 640.167
575.194, 631.148
575.676, 651.809
576.158, 664.190
576.640, 664.930
577.122, 659.060
577.604, 650.073
578.086, 634.287
578.568, 625.351
579.051, 626.699
579.533, 634.391
580.015, 640.857
580.497, 646.570
580.979, 643.168
581.461, 615.010
581.943, 576.349
582.425, 570.487
582.907, 596.433
583.390, 623.307
583.872, 617.476
584.354, 601.350
584.836, 604.473
585.318, 635.067
585.800, 670.942
586.282, 706.203
586.765, 737.860
587.247, 762.021
587.729, 761.044
588.211, 770.769
588.693, 808.849
589.175, 866.963
589.657, 905.336
590.139, 914.024
590.621, 919.527
591.104, 936.041
591.586, 965.365
592.068, 974.162
592.550, 958.658
593.032, 937.348
593.514, 936.355
593.996, 948.297
594.478, 933.724
594.960, 877.566
595.443, 813.165
595.925, 786.038
596.407, 782.381
596.889, 770.479
597.371, 722.778
597.853, 673.618
598.335, 647.996
598.817, 642.725
599.299, 632.291
599.782, 609.080
600.264, 578.449
600.746, 540.376
601.228, 487.312
601.710, 450.483
602.192, 433.359
602.674, 429.177
603.156, 435.535
603.638, 456.625
604.121, 463.804
604.603, 448.973
605.085, 423.998
605.567, 412.862
606.049, 414.263
606.531, 415.276
607.013, 409.619
607.495, 400.095
607.978, 389.194
608.460, 377.373
608.942, 368.148
609.424, 360.611
609.906, 358.409
610.388, 368.373
610.870, 397.856
611.352, 413.843
611.834, 394.524
612.317, 363.564
612.799, 345.429
613.281, 350.501
613.763, 353.237
614.245, 353.432
614.727, 349.348
615.209, 334.404
615.692, 306.318
616.174, 280.385
616.656, 262.978
617.138, 251.958
617.620, 240.480
618.102, 228.510
618.584, 212.465
619.066, 183.899
619.549, 152.029
620.031, 132.559
620.513, 128.877
620.995, 124.322
621.477, 102.606
621.959, 76.752
622.441, 60.692
622.923, 56.400
623.405, 36.726
623.888, 51.278
624.370, 57.540
624.852, 55.958
625.334, 22.992
625.816, 30.586
626.298, 21.943
