##NAMES=Potassic-magnesio-fluoro-arfvedsonite
##RRUFFID=R060915
##IDEAL CHEMISTRY=KNa_2_(Mg_4_Fe^3+^)Si_8_O_22_F_2_
##LOCALITY=Kipawa, Quebec, Canada
##OWNER=RRUFF
##SOURCE=Royal Ontario Museum
##DESCRIPTION=Dark blue-green amphibole with pronounced cleavage, associated with white albite and red eudialyte
##STATUS=The identification of this mineral has been confirmed by X-ray diffraction and chemical analysis
##URL=rruff.info/R060915
##MEASURED CHEMISTRY=(K_0.44_Na_0.41_[box]_0.15_)_Σ=1_(Na_1.79_Ca_0.21_)_Σ=2_(Mg_3.10_Fe^3+^_0.82_Fe^2+^_0.54_Ca_0.27_Mn_0.15_Al_0.11_Ti_0.01_)_Σ=5_Si_8.00_O_22_(F_1.52_(OH)_0.48_)_Σ=2_
152.8606, 0.0000000E+00
153.3427, 5.887939
153.8248, 13.49170
154.3069, 18.35767
154.7890, 4.910156
155.2712, 0.6499020
155.7533, 13.93311
156.2354, 32.72314
156.7175, 41.56055
157.1996, 22.24878
157.6817, 2.452881
158.1639, 13.01343
158.6460, 13.18848
159.1281, 36.88501
159.6102, 43.48657
160.0923, 31.68579
160.5744, 19.89771
161.0566, 4.175537
161.5387, 5.510498
162.0208, 2.156006
162.5029, 49.44165
162.9850, 100.7136
163.4671, 136.5505
163.9493, 152.2322
164.4314, 168.1860
164.9135, 196.7483
165.3956, 231.7036
165.8777, 262.8564
166.3598, 281.4268
166.8420, 297.2905
167.3241, 318.2122
167.8062, 346.9771
168.2883, 376.0249
168.7704, 400.7832
169.2525, 422.3821
169.7346, 443.5728
170.2168, 468.7515
170.6989, 492.9592
171.1810, 511.6765
171.6631, 525.3621
172.1452, 531.0244
172.6273, 521.0754
173.1095, 498.9543
173.5916, 478.6831
174.0737, 472.0964
174.5558, 472.4106
175.0379, 470.0476
175.5201, 463.7092
176.0022, 452.3130
176.4843, 432.4529
176.9664, 404.9697
177.4485, 376.6040
177.9306, 349.8674
178.4128, 326.2249
178.8949, 308.5024
179.3770, 300.7559
179.8591, 297.5554
180.3412, 289.9177
180.8233, 277.7175
181.3055, 264.9163
181.7876, 256.0586
182.2697, 249.8027
182.7518, 241.1101
183.2339, 221.7227
183.7160, 199.5962
184.1982, 196.1616
184.6803, 212.8708
185.1624, 237.2539
185.6445, 260.9712
186.1266, 282.4888
186.6087, 293.9998
187.0908, 278.4702
187.5730, 247.3831
188.0551, 249.9768
188.5372, 292.2878
189.0193, 349.3225
189.5014, 389.0981
189.9835, 412.4968
190.4657, 431.1440
190.9478, 447.3755
191.4299, 462.4102
191.9120, 484.7065
192.3941, 515.6445
192.8762, 551.7617
193.3584, 587.2734
193.8405, 621.9690
194.3226, 658.4465
194.8047, 702.0264
195.2868, 752.0000
195.7689, 788.0789
196.2511, 805.8638
196.7332, 813.2937
197.2153, 826.9875
197.6974, 847.1262
198.1795, 872.6572
198.6616, 905.1633
199.1438, 945.4548
199.6259, 982.0154
200.1080, 1013.297
200.5901, 1040.496
201.0722, 1066.719
201.5543, 1092.306
202.0364, 1115.943
202.5186, 1136.388
203.0007, 1153.313
203.4828, 1168.726
203.9649, 1182.303
204.4470, 1194.498
204.9291, 1207.416
205.4113, 1221.201
205.8934, 1234.993
206.3755, 1246.169
206.8576, 1252.439
207.3397, 1268.065
207.8218, 1299.840
208.3040, 1344.123
208.7861, 1372.927
209.2682, 1381.370
209.7503, 1383.917
210.2324, 1393.960
210.7145, 1413.558
211.1967, 1432.031
211.6788, 1449.348
212.1609, 1465.207
212.6430, 1467.734
213.1251, 1449.181
213.6072, 1430.322
214.0894, 1433.407
214.5715, 1466.872
215.0536, 1500.667
215.5357, 1527.408
216.0178, 1547.151
216.4999, 1572.435
216.9820, 1604.329
217.4642, 1637.604
217.9463, 1667.366
218.4284, 1693.396
218.9105, 1713.688
219.3926, 1726.239
219.8747, 1730.506
220.3569, 1739.095
220.8390, 1754.550
221.3211, 1772.415
221.8032, 1788.833
222.2853, 1807.819
222.7674, 1817.117
223.2496, 1809.623
223.7317, 1780.782
224.2138, 1763.603
224.6959, 1760.353
225.1780, 1765.278
225.6601, 1772.486
226.1423, 1787.668
226.6244, 1796.901
227.1065, 1794.729
227.5886, 1778.111
228.0707, 1762.046
228.5528, 1746.193
229.0350, 1731.041
229.5171, 1717.659
229.9992, 1707.303
230.4813, 1695.416
230.9634, 1681.159
231.4455, 1664.789
231.9276, 1644.420
232.4098, 1620.490
232.8919, 1592.236
233.3740, 1558.314
233.8561, 1513.048
234.3382, 1471.411
234.8203, 1438.080
235.3025, 1414.800
235.7846, 1396.191
236.2667, 1390.466
236.7488, 1385.344
237.2309, 1355.487
237.7130, 1282.815
238.1952, 1214.963
238.6773, 1170.405
239.1594, 1159.552
239.6415, 1139.634
240.1236, 1105.974
240.6057, 1065.169
241.0879, 1029.818
241.5700, 1003.245
242.0521, 977.5513
242.5342, 949.6345
243.0163, 917.6670
243.4984, 888.6348
243.9806, 863.2192
244.4627, 840.3081
244.9448, 817.3518
245.4269, 791.9360
245.9090, 769.9360
246.3911, 754.7373
246.8732, 751.4653
247.3554, 738.8538
247.8375, 709.1799
248.3196, 673.3713
248.8017, 656.8635
249.2838, 676.7825
249.7659, 688.5227
250.2481, 672.4692
250.7302, 614.4119
251.2123, 570.1562
251.6944, 544.6099
252.1765, 530.8066
252.6586, 513.7947
253.1408, 491.0742
253.6229, 469.7449
254.1050, 453.5146
254.5871, 446.4717
255.0692, 431.7344
255.5513, 404.3958
256.0334, 372.0771
256.5156, 350.4553
256.9977, 344.3979
257.4798, 339.9812
257.9619, 330.7227
258.4440, 312.7656
258.9261, 303.4807
259.4083, 308.4509
259.8904, 318.3220
260.3725, 313.6602
260.8546, 289.5781
261.3367, 260.3689
261.8188, 228.9355
262.3010, 190.6038
262.7831, 168.3550
263.2652, 168.0212
263.7473, 179.0688
264.2294, 181.4854
264.7115, 172.7012
265.1937, 161.3186
265.6758, 151.3970
266.1579, 144.4353
266.6400, 130.8420
267.1221, 107.1025
267.6042, 80.31079
268.0864, 65.84595
268.5685, 69.16528
269.0506, 68.79517
269.5327, 52.85059
270.0148, 17.08179
270.4969, 2.451416
270.9791, 0.8937990
271.4612, 10.83740
271.9433, 15.30981
272.4254, 11.82129
272.9075, 3.946777
273.3896, 9.042725
273.8718, 27.83130
274.3539, 40.50024
274.8360, 46.65283
275.3181, 47.56885
275.8002, 43.59204
276.2823, 33.41577
276.7645, 25.53394
277.2466, 23.12573
277.7287, 26.30615
278.2108, 32.16406
278.6929, 41.16821
279.1750, 52.01953
279.6572, 64.43311
280.1393, 79.02905
280.6214, 89.54272
281.1035, 94.23022
281.5856, 93.08130
282.0677, 83.78271
282.5499, 64.15381
283.0320, 42.92236
283.5141, 32.12329
283.9962, 32.00391
284.4783, 31.76147
284.9604, 27.27246
285.4425, 19.32642
285.9247, 13.52466
286.4068, 10.38306
286.8889, 6.864258
287.3710, 6.9824003E-02
287.8531, 10.39209
288.3352, 23.64868
288.8174, 41.55835
289.2995, 62.08130
289.7816, 78.40894
290.2637, 90.18091
290.7458, 98.31445
291.2279, 99.92310
291.7101, 96.81885
292.1922, 100.6379
292.6743, 118.7007
293.1564, 144.0339
293.6385, 157.1060
294.1206, 157.3694
294.6028, 160.6533
295.0849, 187.0415
295.5670, 229.5374
296.0491, 263.8401
296.5312, 281.8101
297.0133, 288.8369
297.4955, 289.8440
297.9776, 285.4387
298.4597, 285.2102
298.9418, 298.2036
299.4239, 321.0593
299.9060, 347.1003
300.3882, 377.2844
300.8703, 406.2439
301.3524, 424.6785
301.8345, 433.6948
302.3166, 441.2427
302.7987, 451.8882
303.2809, 464.7988
303.7630, 479.5833
304.2451, 497.6648
304.7272, 514.3215
305.2093, 521.3213
305.6914, 521.3306
306.1736, 524.6758
306.6557, 540.8962
307.1378, 562.7234
307.6199, 582.5535
308.1020, 600.5986
308.5841, 613.3318
309.0663, 615.4724
309.5484, 609.8862
310.0305, 604.0176
310.5126, 602.8157
310.9947, 602.4895
311.4768, 599.6704
311.9590, 593.4258
312.4411, 586.3335
312.9232, 578.5364
313.4053, 571.0654
313.8874, 566.0168
314.3695, 561.1318
314.8517, 561.0613
315.3337, 575.4058
315.8159, 611.1909
316.2980, 627.8606
316.7801, 586.2026
317.2622, 519.6987
317.7443, 475.0105
318.2264, 488.6489
318.7086, 510.3379
319.1907, 519.7627
319.6728, 514.7053
320.1549, 504.9568
320.6370, 485.9790
321.1191, 466.5989
321.6013, 455.8247
322.0834, 463.0098
322.5655, 471.8953
323.0476, 478.2661
323.5297, 481.8745
324.0118, 485.5386
324.4940, 490.1235
324.9761, 494.6194
325.4582, 498.2466
325.9403, 505.4971
326.4224, 506.7539
326.9045, 497.3740
327.3867, 478.2373
327.8688, 463.2039
328.3509, 454.2744
328.8330, 448.2886
329.3151, 443.6130
329.7972, 443.0271
330.2794, 438.3672
330.7615, 425.4253
331.2436, 406.7371
331.7257, 395.5823
332.2078, 402.4128
332.6899, 405.7195
333.1721, 393.3220
333.6542, 350.3071
334.1363, 326.0830
334.6184, 328.7134
335.1005, 346.7168
335.5826, 353.7395
336.0648, 346.0789
336.5469, 334.1531
337.0290, 320.0930
337.5111, 301.4988
337.9932, 293.2197
338.4753, 300.2048
338.9575, 312.0781
339.4396, 309.9644
339.9217, 289.6421
340.4038, 277.1589
340.8859, 284.7258
341.3680, 310.6155
341.8502, 327.1248
342.3323, 332.3472
342.8144, 333.1677
343.2965, 337.9939
343.7786, 346.8867
344.2607, 351.9023
344.7429, 348.4363
345.2250, 340.2803
345.7071, 340.7046
346.1892, 350.0974
346.6713, 362.9387
347.1534, 375.1072
347.6355, 386.6804
348.1176, 397.6733
348.5998, 405.4153
349.0819, 415.6353
349.5640, 444.9221
350.0461, 491.5518
350.5282, 531.1189
351.0103, 535.0891
351.4925, 521.2000
351.9746, 527.3108
352.4567, 565.3271
352.9388, 612.4802
353.4209, 646.0376
353.9030, 667.9338
354.3852, 684.6482
354.8673, 694.7388
355.3494, 704.0818
355.8315, 720.7927
356.3136, 747.3411
356.7957, 773.3132
357.2779, 788.6946
357.7600, 798.2656
358.2421, 810.2690
358.7242, 831.9521
359.2063, 854.6882
359.6884, 873.4980
360.1706, 888.0503
360.6527, 898.9038
361.1348, 901.2542
361.6169, 901.8679
362.0990, 908.0010
362.5811, 929.0310
363.0633, 948.8318
363.5454, 963.2700
364.0275, 972.0759
364.5096, 974.1619
364.9917, 964.5723
365.4738, 951.0332
365.9560, 938.5117
366.4381, 926.6526
366.9202, 917.4194
367.4023, 913.5347
367.8844, 913.1270
368.3665, 908.8398
368.8487, 894.5603
369.3308, 881.2251
369.8129, 874.0742
370.2950, 880.7410
370.7771, 878.2004
371.2592, 864.2954
371.7414, 841.9717
372.2235, 814.6306
372.7056, 773.7871
373.1877, 741.7000
373.6698, 726.2168
374.1519, 728.6848
374.6341, 736.8843
375.1162, 755.5867
375.5983, 773.1121
376.0804, 774.0042
376.5625, 754.1807
377.0446, 734.8674
377.5267, 720.1406
378.0089, 710.0149
378.4910, 709.1250
378.9731, 720.9021
379.4552, 726.8445
379.9373, 704.9387
380.4194, 656.8689
380.9016, 621.1479
381.3837, 605.3953
381.8658, 602.7124
382.3479, 600.7239
382.8300, 599.4399
383.3121, 598.0500
383.7943, 593.8406
384.2764, 589.1953
384.7585, 592.9878
385.2406, 608.2913
385.7227, 621.5747
386.2048, 613.1992
386.6870, 589.4629
387.1691, 568.0898
387.6512, 552.2610
388.1333, 543.2998
388.6154, 547.5457
389.0975, 566.2805
389.5797, 585.1462
390.0618, 595.8154
390.5439, 599.9121
391.0260, 597.8569
391.5081, 580.4497
391.9902, 562.5767
392.4724, 554.4189
392.9545, 557.1760
393.4366, 564.0410
393.9187, 578.9817
394.4008, 589.8994
394.8829, 588.8240
395.3651, 565.0312
395.8472, 546.7122
396.3293, 541.6475
396.8114, 545.4348
397.2935, 550.6946
397.7756, 565.6721
398.2578, 575.3838
398.7399, 572.0693
399.2220, 549.2058
399.7041, 530.7688
400.1862, 519.8472
400.6683, 512.4558
401.1505, 503.9944
401.6326, 489.7227
402.1147, 483.0579
402.5968, 487.8381
403.0789, 502.6067
403.5610, 511.7163
404.0432, 515.7529
404.5253, 513.7087
405.0074, 501.4697
405.4895, 474.2156
405.9716, 460.1624
406.4537, 466.9851
406.9359, 484.6289
407.4180, 484.6660
407.9001, 464.2078
408.3822, 447.7722
408.8643, 450.2219
409.3464, 469.5327
409.8285, 489.8452
410.3106, 510.8875
410.7928, 529.3232
411.2749, 541.8157
411.7570, 548.2717
412.2391, 547.7993
412.7212, 532.7451
413.2033, 513.9744
413.6855, 511.1746
414.1676, 523.7869
414.6497, 542.9089
415.1318, 565.4956
415.6139, 589.0996
416.0960, 609.9285
416.5782, 627.7781
417.0603, 641.6003
417.5424, 646.3228
418.0245, 645.5068
418.5066, 649.5603
418.9887, 668.6594
419.4709, 690.6541
419.9530, 711.9421
420.4351, 736.6729
420.9172, 740.8267
421.3993, 691.5315
421.8814, 624.1599
422.3636, 584.0659
422.8457, 610.5601
423.3278, 635.5269
423.8099, 643.1550
424.2920, 632.8945
424.7741, 612.1218
425.2563, 571.4292
425.7384, 527.5527
426.2205, 491.9148
426.7026, 471.6680
427.1847, 446.3523
427.6668, 411.4104
428.1490, 371.6104
428.6311, 341.0269
429.1132, 322.4570
429.5953, 306.1350
430.0774, 288.8457
430.5595, 270.7383
431.0417, 248.9475
431.5238, 222.3438
432.0059, 194.7729
432.4880, 170.9446
432.9701, 150.8760
433.4522, 132.7783
433.9344, 115.5056
434.4165, 100.0334
434.8986, 89.42041
435.3807, 83.65186
435.8628, 78.14160
436.3449, 70.31543
436.8271, 60.02637
437.3092, 44.90674
437.7913, 21.57178
438.2734, 1.930908
438.7555, 2.288818
439.2376, 16.81714
439.7197, 30.32617
440.2018, 37.71753
440.6840, 39.08911
441.1661, 31.01416
441.6482, 12.69165
442.1303, 0.7980960
442.6124, 6.013916
443.0945, 18.37134
443.5767, 21.06372
444.0588, 3.858643
444.5409, 24.44604
445.0230, 27.54834
445.5051, 17.16040
445.9872, 13.28027
446.4694, 24.12500
446.9515, 37.98413
447.4336, 50.98291
447.9157, 68.97607
448.3978, 72.66479
448.8799, 49.64233
449.3621, 18.73291
449.8442, 10.12378
450.3263, 36.98242
450.8084, 57.31250
451.2905, 58.17139
451.7726, 41.37451
452.2548, 33.27368
452.7369, 36.80859
453.2190, 40.91455
453.7011, 33.70679
454.1832, 15.20483
454.6653, 6.168213
455.1475, 11.83838
455.6296, 23.65649
456.1117, 25.56421
456.5938, 18.56152
457.0759, 11.94214
457.5580, 9.368408
458.0402, 10.89160
458.5223, 19.70581
459.0044, 36.50415
459.4865, 49.04639
459.9686, 45.47412
460.4507, 31.23242
460.9329, 14.45801
461.4150, 3.901123
461.8971, 21.61450
462.3792, 40.37012
462.8613, 58.07153
463.3434, 67.73682
463.8256, 56.49756
464.3077, 43.30713
464.7898, 41.45068
465.2719, 59.67480
465.7540, 68.55127
466.2361, 49.55322
466.7183, 22.25781
467.2004, 11.79224
467.6825, 35.17065
468.1646, 57.85474
468.6467, 76.47461
469.1288, 90.74316
469.6110, 95.92920
470.0930, 86.36914
470.5752, 76.18921
471.0573, 76.09277
471.5394, 90.81152
472.0215, 93.24634
472.5036, 77.41821
472.9857, 54.99658
473.4679, 48.60254
473.9500, 58.96484
474.4321, 68.40894
474.9142, 68.77881
475.3963, 63.03394
475.8784, 60.34009
476.3606, 60.75879
476.8427, 63.80762
477.3248, 71.24683
477.8069, 80.82104
478.2890, 88.02441
478.7711, 92.05713
479.2533, 93.21265
479.7354, 88.73706
480.2175, 81.36719
480.6996, 77.81372
481.1817, 83.35913
481.6638, 92.30054
482.1460, 102.9346
482.6281, 115.4072
483.1102, 122.4895
483.5923, 113.1021
484.0744, 101.4099
484.5565, 99.53760
485.0387, 124.1167
485.5208, 141.5615
486.0029, 146.6238
486.4850, 141.5571
486.9671, 132.2861
487.4492, 114.4590
487.9314, 98.54053
488.4135, 88.54297
488.8956, 85.25928
489.3777, 84.46777
489.8598, 87.90015
490.3419, 90.99951
490.8241, 83.97607
491.3062, 64.81396
491.7883, 64.82593
492.2704, 97.80103
492.7525, 146.8547
493.2346, 172.2571
493.7168, 174.5554
494.1989, 169.7517
494.6810, 162.0024
495.1631, 155.1995
495.6452, 158.6575
496.1273, 173.8875
496.6095, 191.1067
497.0916, 201.9526
497.5737, 208.7441
498.0558, 214.9990
498.5379, 221.2976
499.0201, 228.0466
499.5022, 234.7747
499.9843, 241.9395
500.4664, 251.3247
500.9485, 266.0095
501.4306, 281.0149
501.9127, 294.4905
502.3948, 307.4207
502.8770, 312.4153
503.3591, 296.1035
503.8412, 278.6384
504.3233, 282.5034
504.8054, 325.6038
505.2875, 357.5481
505.7697, 366.9761
506.2518, 359.6743
506.7339, 361.7947
507.2160, 376.4841
507.6981, 390.8904
508.1802, 393.3965
508.6624, 385.1350
509.1445, 386.6396
509.6266, 400.8284
510.1087, 420.5686
510.5908, 440.6636
511.0729, 459.6094
511.5551, 472.0466
512.0372, 473.9585
512.5193, 471.4421
513.0014, 469.7014
513.4835, 468.9609
513.9656, 472.5410
514.4478, 488.0842
514.9299, 505.7544
515.4120, 515.1404
515.8941, 512.0498
516.3762, 513.1475
516.8583, 532.7466
517.3405, 556.7295
517.8226, 570.3835
518.3047, 555.7322
518.7868, 548.6235
519.2689, 560.6758
519.7510, 586.4758
520.2332, 603.8328
520.7153, 610.9141
521.1974, 611.4165
521.6795, 603.8357
522.1616, 584.7063
522.6437, 580.0073
523.1259, 592.8770
523.6080, 613.9346
524.0901, 635.2964
524.5722, 657.0889
525.0543, 671.0068
525.5364, 674.0813
526.0186, 671.0930
526.5007, 670.3340
526.9828, 671.8870
527.4649, 676.3430
527.9470, 682.8879
528.4291, 693.0229
528.9113, 712.2595
529.3934, 741.2786
529.8755, 765.6611
530.3576, 770.3660
530.8397, 767.4243
531.3218, 770.4749
531.8040, 793.4968
532.2861, 810.1355
532.7682, 804.7649
533.2503, 786.2900
533.7324, 777.5139
534.2145, 780.4258
534.6967, 795.1345
535.1788, 826.5981
535.6609, 877.9548
536.1430, 913.9739
536.6251, 927.9365
537.1072, 935.1694
537.5894, 949.1477
538.0715, 972.3291
538.5536, 985.1660
539.0357, 982.1431
539.5178, 973.9270
539.9999, 981.2986
540.4821, 1002.171
540.9642, 1018.262
541.4463, 1017.265
541.9284, 1008.667
542.4105, 1009.674
542.8926, 1019.654
543.3748, 1033.730
543.8569, 1057.564
544.3390, 1079.665
544.8211, 1083.730
545.3032, 1059.543
545.7853, 1034.887
546.2675, 1023.404
546.7495, 1020.516
547.2316, 1019.104
547.7137, 1017.942
548.1959, 1017.004
548.6780, 1018.942
549.1601, 1023.172
549.6422, 1021.058
550.1243, 1009.696
550.6064, 994.8630
551.0886, 979.3706
551.5707, 963.2153
552.0528, 946.2080
552.5349, 925.8250
553.0170, 909.8608
553.4991, 915.1348
553.9813, 940.1367
554.4634, 945.0090
554.9455, 911.8845
555.4276, 864.3743
555.9097, 846.4014
556.3918, 853.5723
556.8740, 863.0767
557.3561, 863.2639
557.8382, 858.1204
558.3203, 852.7722
558.8024, 848.2317
559.2845, 837.0654
559.7667, 805.4426
560.2488, 769.9768
560.7309, 745.0818
561.2130, 740.1548
561.6951, 736.2419
562.1772, 732.5867
562.6594, 727.1514
563.1415, 715.8503
563.6236, 690.2485
564.1057, 671.1189
564.5878, 664.2192
565.0699, 668.1843
565.5521, 669.4177
566.0342, 668.4895
566.5163, 663.1331
566.9984, 648.1785
567.4805, 624.9412
567.9626, 611.3088
568.4448, 609.0103
568.9269, 612.3516
569.4090, 618.3660
569.8911, 624.8516
570.3732, 625.4902
570.8553, 614.0356
571.3375, 601.3835
571.8196, 599.5298
572.3017, 605.1650
572.7838, 608.9136
573.2659, 602.4177
573.7480, 596.3186
574.2302, 599.0540
574.7123, 612.8923
575.1944, 617.8901
575.6765, 602.3491
576.1586, 582.6775
576.6407, 569.5278
577.1229, 564.9600
577.6050, 563.2273
578.0871, 566.4316
578.5692, 570.4873
579.0513, 567.1433
579.5334, 555.2168
580.0156, 544.5615
580.4977, 538.5818
580.9798, 535.7766
581.4619, 532.7268
581.9440, 529.3303
582.4261, 523.8245
582.9083, 517.2480
583.3904, 506.9587
583.8725, 487.1709
584.3546, 456.6277
584.8367, 425.0918
585.3188, 393.0508
585.8010, 365.7288
586.2831, 349.2268
586.7652, 361.8899
587.2473, 364.1226
587.7294, 336.4438
588.2115, 291.5327
588.6937, 260.3931
589.1758, 254.2671
589.6579, 248.5645
590.1400, 237.7507
590.6221, 222.0276
591.1042, 204.5769
591.5864, 185.5186
592.0685, 164.9363
592.5506, 140.4785
593.0327, 113.0046
593.5148, 94.96509
593.9969, 88.31592
594.4791, 84.73511
594.9612, 76.34229
595.4433, 63.62793
595.9254, 46.82349
596.4075, 20.67480
596.8896, 1.768066
597.3718, 5.186035
597.8539, 3.969971
598.3360, 9.940186
598.8181, 1.887939
599.3002, 10.87354
599.7823, 2.428467
600.2645, 25.13379
600.7466, 36.75244
601.2287, 16.33276
601.7108, 7.751953
602.1929, 20.02393
602.6750, 15.36523
603.1572, 14.65527
603.6393, 19.91626
604.1214, 25.70850
604.6035, 23.01123
605.0856, 12.00073
605.5677, 6.488281
606.0499, 11.94458
606.5320, 21.35107
607.0141, 21.29834
607.4962, 14.14185
607.9783, 9.137939
608.4604, 13.17798
608.9425, 20.45972
609.4246, 26.49121
609.9067, 31.10596
610.3889, 34.13647
610.8710, 37.87134
611.3531, 38.37720
611.8352, 31.78955
612.3173, 10.11621
612.7994, 1.950928
613.2816, 5.1757999E-02
613.7637, 9.252197
614.2458, 21.43481
614.7279, 42.88892
615.2100, 45.07837
615.6921, 16.00195
616.1743, 27.70166
616.6564, 42.18140
617.1385, 27.86353
617.6206, 10.79443
618.1027, 1.898193
618.5848, 1.119873
