##NAMES=Potassic-magnesio-fluoro-arfvedsonite
##RRUFFID=R060915
##IDEAL CHEMISTRY=KNa_2_(Mg_4_Fe^3+^)Si_8_O_22_F_2_
##LOCALITY=Kipawa, Quebec, Canada
##OWNER=RRUFF
##SOURCE=Royal Ontario Museum
##DESCRIPTION=Dark blue-green amphibole with pronounced cleavage, associated with white albite and red eudialyte
##STATUS=The identification of this mineral has been confirmed by X-ray diffraction and chemical analysis
##URL=rruff.info/R060915
##MEASURED CHEMISTRY=(K_0.44_Na_0.41_[box]_0.15_)_Σ=1_(Na_1.79_Ca_0.21_)_Σ=2_(Mg_3.10_Fe^3+^_0.82_Fe^2+^_0.54_Ca_0.27_Mn_0.15_Al_0.11_Ti_0.01_)_Σ=5_Si_8.00_O_22_(F_1.52_(OH)_0.48_)_Σ=2_
159.1325, 0.0000000E+00
159.6146, 9.192749
160.0968, 1.233887
160.5789, 5.206055
161.0610, 15.35303
161.5431, 15.62402
162.0252, 5.597412
162.5073, 1.731201
162.9895, 6.901245
163.4716, 33.63794
163.9537, 58.40955
164.4358, 76.98743
164.9179, 95.35132
165.4000, 120.6306
165.8822, 153.5618
166.3643, 186.0006
166.8464, 209.7166
167.3285, 224.1541
167.8106, 237.9785
168.2927, 255.8729
168.7749, 271.3964
169.2570, 275.9275
169.7391, 267.7631
170.2212, 257.0166
170.7033, 254.6650
171.1854, 260.3981
171.6676, 262.8611
172.1497, 259.4485
172.6318, 252.2953
173.1139, 243.9979
173.5960, 235.0045
174.0781, 223.9049
174.5603, 207.8927
175.0424, 187.4877
175.5245, 168.5579
176.0066, 152.8608
176.4887, 139.0347
176.9708, 124.3628
177.4530, 107.7020
177.9351, 93.80188
178.4172, 89.44336
178.8993, 93.04785
179.3814, 96.44495
179.8635, 99.88416
180.3457, 101.1479
180.8278, 94.87683
181.3099, 78.45789
181.7920, 62.28162
182.2741, 59.14758
182.7562, 66.24963
183.2384, 72.19800
183.7205, 70.43091
184.2026, 66.48975
184.6847, 70.89941
185.1668, 87.12366
185.6489, 103.6445
186.1311, 108.1514
186.6132, 103.3120
187.0953, 97.32141
187.5774, 86.19287
188.0595, 77.34314
188.5416, 86.77771
189.0238, 121.2731
189.5059, 156.6682
189.9880, 169.6104
190.4701, 165.3801
190.9522, 158.2771
191.4343, 148.3009
191.9165, 139.3885
192.3986, 138.6251
192.8807, 147.5000
193.3628, 161.5092
193.8449, 180.3881
194.3270, 202.2328
194.8092, 220.4686
195.2913, 230.3717
195.7734, 236.1556
196.2555, 244.6661
196.7376, 256.5765
197.2197, 270.4044
197.7019, 287.4248
198.1840, 305.9868
198.6661, 320.7124
199.1482, 328.6414
199.6303, 332.2644
200.1124, 335.7407
200.5946, 339.7994
201.0767, 341.6080
201.5588, 332.6027
202.0409, 318.9307
202.5230, 315.8359
203.0051, 338.2919
203.4873, 369.7274
203.9694, 384.4386
204.4515, 378.5134
204.9336, 370.2822
205.4157, 375.6860
205.8978, 388.5725
206.3800, 395.6427
206.8621, 386.9469
207.3442, 373.6517
207.8263, 372.6344
208.3084, 386.0988
208.7905, 398.1050
209.2727, 393.2437
209.7548, 379.5980
210.2369, 373.9189
210.7190, 385.3357
211.2011, 402.8644
211.6832, 413.5927
212.1654, 416.8174
212.6475, 420.2441
213.1296, 430.8915
213.6117, 444.4546
214.0938, 451.7666
214.5760, 444.6865
215.0581, 436.6342
215.5402, 442.0573
216.0223, 464.1613
216.5044, 493.5709
216.9865, 519.5210
217.4687, 543.8060
217.9508, 561.9548
218.4329, 570.0671
218.9150, 576.7479
219.3971, 594.0200
219.8792, 621.4021
220.3614, 638.0358
220.8435, 626.4077
221.3256, 599.7832
221.8077, 585.6461
222.2898, 588.5383
222.7719, 599.3506
223.2541, 615.1553
223.7362, 634.1409
224.2183, 646.5625
224.7004, 646.4092
225.1825, 639.5503
225.6646, 638.5537
226.1468, 647.0376
226.6289, 651.9578
227.1110, 641.2878
227.5931, 619.6842
228.0752, 605.1350
228.5573, 606.4076
229.0395, 616.5492
229.5216, 623.1648
230.0037, 625.6987
230.4858, 625.9556
230.9679, 622.4048
231.4500, 616.2859
231.9322, 611.9906
232.4143, 612.3064
232.8964, 612.7454
233.3785, 603.7327
233.8606, 583.1560
234.3427, 566.2930
234.8249, 560.7041
235.3070, 561.3762
235.7891, 560.4005
236.2712, 556.0861
236.7533, 548.6194
237.2354, 536.9800
237.7176, 520.4374
238.1997, 505.9142
238.6818, 493.6156
239.1639, 484.3943
239.6460, 479.6920
240.1281, 479.8468
240.6103, 483.2314
241.0924, 490.5389
241.5745, 503.4436
242.0566, 504.4258
242.5387, 478.3193
243.0208, 448.2158
243.5030, 438.1375
243.9851, 449.6409
244.4672, 462.8213
244.9493, 458.9526
245.4314, 435.6160
245.9135, 417.3043
246.3957, 402.2539
246.8778, 393.3722
247.3599, 396.8468
247.8420, 410.3990
248.3241, 422.1407
248.8062, 422.7778
249.2884, 412.3993
249.7705, 404.5358
250.2526, 403.0601
250.7347, 399.8802
251.2168, 388.2656
251.6989, 371.6064
252.1811, 359.9728
252.6632, 360.7778
253.1453, 371.1484
253.6274, 370.7295
254.1095, 351.2207
254.5916, 331.8644
255.0738, 316.0555
255.5559, 303.6794
256.0380, 294.6519
256.5201, 289.0950
257.0022, 285.9736
257.4843, 282.0251
257.9665, 275.8555
258.4486, 270.5900
258.9307, 269.9570
259.4128, 268.8933
259.8949, 260.8364
260.3770, 243.5746
260.8592, 221.7119
261.3413, 203.8357
261.8234, 193.4562
262.3055, 181.7592
262.7876, 166.9663
263.2697, 152.0780
263.7519, 139.4530
264.2340, 129.5583
264.7161, 121.2874
265.1982, 113.5227
265.6803, 106.7899
266.1624, 98.85547
266.6446, 86.93396
267.1267, 76.27612
267.6088, 70.44104
268.0909, 68.88892
268.5730, 68.39160
269.0551, 66.30127
269.5373, 62.70605
270.0194, 56.51270
270.5015, 46.41260
270.9836, 34.63452
271.4657, 21.11597
271.9478, 6.343140
272.4300, 9.282104
272.9121, 27.05188
273.3942, 45.30920
273.8763, 53.90149
274.3584, 47.98279
274.8405, 38.33337
275.3227, 23.25146
275.8048, 8.315552
276.2869, 2.488159
276.7690, 12.61584
277.2511, 29.32983
277.7332, 28.94214
278.2154, 1.431763
278.6975, 15.93994
279.1796, 2.204712
279.6617, 29.02002
280.1438, 37.30872
280.6259, 17.20020
281.1081, 8.896729
281.5902, 11.77393
282.0723, 10.85425
282.5544, 28.27429
283.0365, 30.83118
283.5186, 26.09131
284.0008, 18.92822
284.4829, 9.531250
284.9650, 2.313965
285.4471, 0.5725100
285.9292, 1.113525
286.4113, 10.39966
286.8935, 33.69067
287.3756, 55.21594
287.8577, 59.32910
288.3398, 47.91443
288.8219, 33.19287
289.3040, 17.31433
289.7862, 2.011353
290.2683, 8.016113
290.7504, 10.79407
291.2325, 16.65881
291.7146, 39.36194
292.1967, 74.05859
292.6789, 96.76904
293.1610, 94.81604
293.6431, 86.16577
294.1252, 84.32910
294.6073, 89.50256
295.0894, 99.28467
295.5716, 113.8225
296.0537, 131.5574
296.5358, 145.0062
297.0179, 151.1859
297.5000, 156.7529
297.9821, 162.4980
298.4643, 169.5332
298.9464, 181.8618
299.4285, 202.2256
299.9106, 225.1306
300.3927, 237.1702
300.8748, 229.1180
301.3570, 225.2374
301.8391, 230.8984
302.3212, 240.4199
302.8033, 248.2612
303.2854, 252.9613
303.7675, 255.8521
304.2497, 258.5466
304.7318, 260.2853
305.2139, 264.2727
305.6960, 270.4043
306.1781, 278.5422
306.6602, 290.6050
307.1424, 305.1863
307.6245, 317.9236
308.1066, 324.9147
308.5887, 326.0659
309.0708, 325.9011
309.5529, 322.5448
310.0351, 319.7571
310.5172, 318.0852
310.9993, 317.6812
311.4814, 318.5630
311.9635, 320.6820
312.4456, 324.2511
312.9278, 330.7964
313.4099, 344.5959
313.8920, 352.9639
314.3741, 348.9854
314.8562, 341.4482
315.3383, 339.1626
315.8205, 344.8136
316.3026, 352.0413
316.7847, 350.6760
317.2668, 338.8364
317.7489, 334.3989
318.2310, 346.3835
318.7132, 361.8792
319.1953, 371.9130
319.6774, 376.3834
320.1595, 381.0978
320.6416, 390.8738
321.1237, 404.1553
321.6059, 416.0143
322.0880, 427.6841
322.5701, 434.3116
323.0522, 427.0438
323.5343, 411.1903
324.0164, 401.3606
324.4986, 405.0319
324.9807, 414.6952
325.4628, 423.2579
325.9449, 430.5750
326.4270, 435.1781
326.9091, 434.8417
327.3913, 431.6229
327.8734, 432.4318
328.3555, 442.9971
328.8376, 449.6545
329.3197, 441.2236
329.8018, 424.5154
330.2840, 415.7137
330.7661, 422.1801
331.2482, 432.3751
331.7303, 425.3348
332.2124, 390.8182
332.6945, 365.8798
333.1767, 360.4620
333.6588, 361.4272
334.1409, 357.0543
334.6230, 344.7880
335.1051, 328.5807
335.5872, 313.0963
336.0694, 299.5928
336.5515, 291.8943
337.0336, 289.4635
337.5157, 288.8483
337.9979, 294.6139
338.4800, 304.2484
338.9621, 309.3168
339.4442, 302.4216
339.9263, 286.1292
340.4084, 275.7025
340.8906, 276.5354
341.3727, 277.7014
341.8548, 275.6873
342.3369, 274.3248
342.8190, 278.7087
343.3011, 289.8842
343.7833, 300.2390
344.2654, 296.2362
344.7475, 273.7810
345.2296, 262.5404
345.7117, 276.7350
346.1938, 296.8728
346.6760, 311.0123
347.1581, 319.6763
347.6402, 328.2977
348.1223, 341.1666
348.6044, 355.4962
349.0865, 363.4186
349.5687, 362.2871
350.0508, 362.7584
350.5329, 375.6122
351.0150, 394.7594
351.4971, 407.4336
351.9792, 408.8489
352.4614, 405.7615
352.9435, 398.4777
353.4256, 389.4951
353.9077, 393.0171
354.3898, 419.1313
354.8719, 455.3044
355.3541, 473.3955
355.8362, 469.7987
356.3183, 463.0168
356.8004, 452.3661
357.2825, 442.8757
357.7646, 441.6420
358.2468, 449.6848
358.7289, 461.1451
359.2110, 470.2263
359.6931, 476.9130
360.1752, 480.6088
360.6573, 478.8893
361.1395, 477.0699
361.6216, 480.4113
362.1037, 485.4919
362.5858, 482.2850
363.0679, 462.9998
363.5500, 435.5691
364.0322, 432.6289
364.5143, 476.3453
364.9964, 510.5454
365.4785, 524.4312
365.9606, 528.4098
366.4427, 530.1398
366.9249, 531.9469
367.4070, 534.6747
367.8891, 540.5071
368.3712, 549.9268
368.8533, 555.2469
369.3354, 553.3861
369.8176, 549.7921
370.2997, 545.8909
370.7818, 542.7006
371.2639, 543.4504
371.7460, 552.3593
372.2281, 565.2789
372.7103, 574.3787
373.1924, 578.9994
373.6745, 584.7112
374.1566, 597.1051
374.6387, 611.5231
375.1208, 617.8929
375.6030, 612.2952
376.0851, 604.6622
376.5672, 598.3215
377.0493, 593.8910
377.5314, 594.1260
378.0135, 600.5646
378.4957, 607.3987
378.9778, 606.0638
379.4599, 592.9321
379.9420, 582.6049
380.4241, 580.2126
380.9063, 576.7146
381.3884, 565.3699
381.8705, 546.9124
382.3526, 525.1881
382.8347, 502.1171
383.3168, 478.7814
383.7990, 465.3939
384.2811, 477.7377
384.7632, 481.2126
385.2453, 461.2190
385.7274, 434.6516
386.2095, 422.0181
386.6917, 430.0631
387.1738, 445.2505
387.6559, 445.8042
388.1380, 427.4717
388.6201, 412.5845
389.1022, 408.0697
389.5844, 404.2271
390.0665, 392.2046
390.5486, 375.2749
391.0307, 366.2709
391.5128, 378.1410
391.9949, 399.3988
392.4771, 406.2391
392.9592, 396.7812
393.4413, 385.0299
393.9234, 376.7424
394.4055, 372.0194
394.8876, 370.8988
395.3698, 376.8199
395.8519, 381.7260
396.3340, 377.6427
396.8161, 368.1681
397.2982, 362.9070
397.7803, 365.4023
398.2625, 371.2153
398.7446, 374.2273
399.2267, 373.5116
399.7088, 371.6266
400.1909, 372.4279
400.6730, 369.5704
401.1552, 355.5206
401.6373, 333.8405
402.1194, 314.9773
402.6015, 306.1971
403.0836, 305.3641
403.5657, 302.7332
404.0479, 294.8419
404.5300, 288.7913
405.0121, 291.9823
405.4942, 293.9216
405.9763, 280.6880
406.4584, 251.5219
406.9406, 225.7908
407.4227, 230.1555
407.9048, 262.9902
408.3869, 275.1265
408.8690, 251.3899
409.3511, 227.2305
409.8333, 224.8752
410.3154, 237.2943
410.7975, 250.0587
411.2796, 259.1091
411.7617, 265.9994
412.2438, 272.1198
412.7260, 277.4421
413.2081, 281.9724
413.6902, 286.0276
414.1723, 288.7786
414.6544, 287.1760
415.1365, 278.5443
415.6187, 275.7523
416.1008, 277.0768
416.5829, 287.8649
417.0650, 325.4663
417.5471, 384.6123
418.0292, 426.4747
418.5114, 415.3945
418.9935, 354.9835
419.4756, 318.2338
419.9577, 325.7910
420.4398, 333.7347
420.9219, 337.8734
421.4041, 337.1962
421.8862, 328.9518
422.3683, 312.6075
422.8504, 295.4939
423.3325, 289.4003
423.8146, 296.3563
424.2968, 299.0070
424.7789, 296.8844
425.2610, 288.7804
425.7431, 270.8672
426.2252, 246.4092
426.7073, 225.1658
427.1895, 213.6359
427.6716, 206.1780
428.1537, 194.8969
428.6358, 179.8005
429.1179, 164.9784
429.6000, 152.0227
430.0822, 140.5021
430.5643, 129.1984
431.0464, 117.3679
431.5285, 107.7534
432.0106, 103.7798
432.4927, 100.9253
432.9749, 94.30164
433.4570, 83.33862
433.9391, 69.12280
434.4212, 50.96655
434.9033, 29.18298
435.3854, 21.67004
435.8676, 47.09277
436.3497, 65.13892
436.8318, 66.01282
437.3139, 56.03406
437.7960, 39.79993
438.2781, 19.51514
438.7603, 2.690674
439.2424, 2.659424
439.7245, 21.79858
440.2066, 35.15881
440.6887, 40.35938
441.1708, 39.55615
441.6530, 32.08801
442.1351, 20.02100
442.6172, 9.205078
443.0993, 3.508179
443.5814, 1.175781
444.0635, 12.99170
444.5457, 30.68616
445.0278, 39.49963
445.5099, 31.36597
445.9920, 14.28613
446.4741, 2.085571
446.9562, 6.439331
447.4384, 7.961426
447.9205, 4.955078
448.4026, 20.34644
448.8847, 27.66345
449.3668, 26.69214
449.8489, 22.35535
450.3311, 17.79785
450.8132, 13.40894
451.2953, 11.88416
451.7774, 12.89917
452.2595, 17.60657
452.7416, 33.49988
453.2238, 48.54480
453.7059, 49.59863
454.1880, 34.72986
454.6701, 16.88831
455.1522, 9.531250
455.6343, 11.52625
456.1165, 11.20862
456.5986, 6.469238
457.0807, 2.754883
457.5628, 5.214600
458.0449, 10.86426
458.5270, 14.14941
459.0092, 12.11035
459.4913, 10.32300
459.9734, 15.27661
460.4555, 23.40405
460.9376, 24.83240
461.4197, 16.28918
461.9019, 3.967651
462.3840, 4.532349
462.8661, 8.677979
463.3482, 10.69836
463.8303, 7.949463
464.3124, 5.883301
464.7946, 8.619019
465.2767, 13.77722
465.7588, 15.85095
466.2409, 11.89343
466.7230, 5.794678
467.2051, 6.898315
467.6873, 18.82446
468.1694, 25.50720
468.6515, 17.25769
469.1336, 9.751587
469.6157, 14.27368
470.0978, 28.43713
470.5800, 39.91821
471.0621, 40.14380
471.5442, 34.90845
472.0263, 31.64771
472.5084, 30.41016
472.9905, 35.01624
473.4727, 50.75342
473.9548, 69.70068
474.4369, 72.71948
474.9190, 53.83533
475.4011, 40.51038
475.8832, 38.72766
476.3654, 43.71301
476.8475, 54.65674
477.3296, 69.22034
477.8117, 79.84314
478.2938, 79.95911
478.7759, 72.46301
479.2581, 74.29895
479.7402, 93.31494
480.2223, 109.3340
480.7044, 121.6498
481.1865, 128.5377
481.6686, 125.5410
482.1508, 113.3334
482.6329, 102.4124
483.1150, 104.3663
483.5971, 114.6364
484.0792, 116.6644
484.5613, 108.4854
485.0435, 98.79993
485.5256, 93.35449
486.0077, 89.49780
486.4898, 79.99255
486.9719, 59.24146
487.4540, 43.14551
487.9362, 41.77478
488.4183, 46.84827
488.9004, 46.80383
489.3825, 39.98828
489.8646, 33.00134
490.3467, 31.98206
490.8289, 36.88940
491.3110, 42.38782
491.7931, 49.97888
492.2752, 56.32666
492.7573, 62.28198
493.2394, 66.06348
493.7216, 63.76135
494.2037, 54.81030
494.6858, 47.35583
495.1679, 51.37659
495.6500, 65.13623
496.1321, 76.24927
496.6143, 83.58813
497.0964, 89.01746
497.5785, 92.16992
498.0606, 94.45129
498.5427, 99.39990
499.0248, 109.3969
499.5070, 119.0054
499.9891, 125.8491
500.4712, 130.4900
500.9533, 132.6821
501.4355, 132.5964
501.9176, 133.3293
502.3997, 138.7828
502.8818, 150.0480
503.3639, 156.4486
503.8460, 152.6912
504.3282, 150.6526
504.8103, 151.5597
505.2924, 155.4124
505.7745, 162.6412
506.2566, 172.7196
506.7387, 183.2001
507.2209, 193.0991
507.7030, 202.0692
508.1851, 204.5963
508.6672, 197.3802
509.1493, 190.7457
509.6314, 190.9004
510.1136, 196.7852
510.5957, 205.9570
511.0778, 226.4192
511.5599, 239.8705
512.0420, 230.4338
512.5241, 212.1975
513.0062, 206.4401
513.4883, 217.1138
513.9705, 234.2723
514.4526, 247.9363
514.9347, 257.9354
515.4168, 268.0148
515.8989, 280.8472
516.3810, 289.9905
516.8632, 290.8864
517.3453, 289.4363
517.8274, 292.3943
518.3095, 301.2852
518.7916, 311.1632
519.2737, 317.4545
519.7559, 321.1355
520.2380, 324.6805
520.7201, 327.3652
521.2022, 331.6467
521.6843, 339.9689
522.1664, 351.0676
522.6486, 360.4357
523.1307, 366.4154
523.6128, 373.1545
524.0949, 381.3823
524.5770, 391.3241
525.0591, 406.1815
525.5413, 424.8721
526.0234, 438.2522
526.5055, 436.2699
526.9876, 421.3446
527.4697, 421.9155
527.9518, 452.7201
528.4340, 474.5240
528.9161, 468.2247
529.3982, 456.9269
529.8803, 464.6528
530.3624, 493.9851
530.8445, 521.3579
531.3267, 528.3564
531.8088, 523.0973
532.2909, 519.8390
532.7730, 519.2501
533.2551, 528.0928
533.7372, 554.9990
534.2194, 589.5477
534.7015, 600.2352
535.1836, 564.4500
535.6657, 549.8933
536.1478, 578.3582
536.6299, 618.7816
537.1121, 651.5297
537.5942, 673.9203
538.0763, 688.1261
538.5584, 694.7977
539.0405, 696.4673
539.5226, 700.4152
540.0048, 707.6283
540.4869, 713.8180
540.9690, 719.8160
541.4511, 722.7678
541.9332, 718.7361
542.4153, 708.7479
542.8975, 700.8673
543.3796, 700.1620
543.8617, 701.7477
544.3438, 700.1384
544.8259, 695.9890
545.3080, 692.7283
545.7902, 691.6580
546.2723, 692.3048
546.7544, 694.3777
547.2365, 698.9093
547.7186, 700.1448
548.2007, 696.4089
548.6829, 691.7161
549.1650, 687.0310
549.6471, 682.5703
550.1292, 678.0071
550.6113, 673.2677
551.0934, 671.1088
551.5756, 678.4727
552.0577, 693.3990
552.5398, 699.4587
553.0219, 692.9170
553.5040, 681.9092
553.9861, 670.1537
554.4683, 658.7743
554.9504, 652.0442
555.4325, 647.9680
555.9146, 651.2875
556.3967, 675.1302
556.8788, 700.8183
557.3610, 702.7775
557.8431, 679.3285
558.3252, 651.7985
558.8073, 639.0560
559.2894, 640.0558
559.7715, 646.4424
560.2537, 664.9360
560.7358, 672.2335
561.2179, 653.7082
561.7000, 625.9240
562.1821, 599.4632
562.6642, 575.2184
563.1464, 558.0136
563.6285, 556.8584
564.1106, 560.6054
564.5927, 554.7141
565.0748, 540.7531
565.5569, 529.4147
566.0391, 526.4616
566.5212, 528.1331
567.0033, 526.2863
567.4854, 519.6565
567.9675, 512.2405
568.4496, 504.5868
568.9318, 495.7742
569.4139, 481.7512
569.8960, 466.9961
570.3781, 460.8307
570.8602, 468.2642
571.3423, 479.1885
571.8245, 483.2555
572.3066, 480.7222
572.7887, 470.6572
573.2708, 450.2701
573.7529, 433.2509
574.2350, 433.4795
574.7172, 447.7991
575.1993, 450.6019
575.6814, 435.9216
576.1635, 418.0786
576.6456, 392.3273
577.1277, 370.1383
577.6099, 367.0767
578.0920, 382.2511
578.5741, 398.3682
579.0562, 401.7086
579.5383, 393.9349
580.0204, 380.9890
580.5026, 361.6647
580.9847, 341.1339
581.4668, 317.6595
581.9489, 296.7146
582.4310, 285.1718
582.9132, 282.9080
583.3953, 279.6315
583.8774, 275.4465
584.3596, 266.5160
584.8417, 242.7730
585.3238, 212.3325
585.8059, 197.0836
586.2880, 205.4309
586.7701, 221.3738
587.2523, 221.6901
587.7344, 204.8788
588.2165, 181.4760
588.6986, 138.5985
589.1807, 106.3105
589.6628, 100.3969
590.1450, 108.4018
590.6271, 115.6201
591.1092, 119.8158
591.5913, 117.1888
592.0734, 101.4254
592.5555, 78.73236
593.0377, 56.98169
593.5198, 37.50604
594.0019, 25.51239
594.4840, 25.51508
594.9661, 32.76447
595.4482, 32.54187
595.9304, 14.49249
596.4125, 7.091736
596.8946, 21.75024
597.3767, 35.62079
597.8588, 32.12286
598.3409, 17.64600
598.8231, 10.73041
599.3052, 23.05017
599.7873, 37.84845
600.2694, 32.31183
600.7515, 11.19110
601.2336, 4.338745
601.7158, 9.954834
602.1979, 11.01056
602.6800, 11.41132
603.1621, 11.20807
603.6442, 11.16278
604.1263, 13.60791
604.6085, 13.13794
605.0906, 5.986450
605.5727, 2.416138
606.0548, 8.675110
606.5369, 11.60681
607.0190, 9.561096
607.5012, 1.501343
607.9833, 15.53491
608.4654, 16.72150
608.9475, 4.763855
609.4296, 1.639099
609.9117, 4.973450
610.3939, 15.00952
610.8760, 17.23627
611.3581, 10.98309
611.8402, 7.286621
612.3223, 7.725159
612.8044, 9.246521
613.2866, 12.23444
613.7687, 14.88788
614.2508, 14.40613
614.7329, 10.46814
615.2150, 5.932922
615.6971, 2.778137
616.1793, 1.382935
616.6614, 5.492554
617.1435, 17.25635
617.6256, 23.40332
618.1077, 15.80914
618.5898, 2.949036
619.0720, 1.852295
619.5541, 2.407349
620.0362, 3.112427
620.5183, 8.510193
621.0004, 17.71680
621.4825, 10.99127
621.9647, 3.727722
622.4468, 10.63855
622.9289, 4.449524
623.4110, 6.195190
623.8931, 9.095764
624.3752, 4.601807
624.8574, 9.970398
625.3395, 31.66681
