##NAMES=Salammoniac
##RRUFFID=R060521
##IDEAL CHEMISTRY=NH_4_Cl
##LOCALITY=Tien-Shan Mountains, Tadzhikistan, U.S.S.R
##OWNER=RRUFF
##SOURCE=Michael Scott
##DESCRIPTION=White dendritic
##STATUS=The identification of this mineral has been confirmed by X-ray diffraction and chemical analysis
##URL=rruff.info/R060521
##MEASURED CHEMISTRY=NH_4_Cl_1.00_ ; N, H not measured but estimated by stoichiometry
108.505, 81.136
108.987, 45.184
109.469, 37.628
109.951, 178.070
110.433, 359.235
110.915, 564.246
111.397, 824.297
111.879, 1076.298
112.362, 1306.577
112.844, 1504.888
113.326, 1694.879
113.808, 1880.792
114.290, 2062.271
114.772, 2231.972
115.254, 2365.798
115.736, 2501.615
116.218, 2660.235
116.701, 2835.372
117.183, 3046.744
117.665, 3304.168
118.147, 3604.044
118.629, 3937.278
119.111, 4306.014
119.593, 4702.488
120.075, 5112.802
120.558, 5523.255
121.040, 5956.374
121.522, 6456.542
122.004, 7027.727
122.486, 7555.326
122.968, 7967.059
123.450, 8277.401
123.932, 8513.622
124.414, 8632.204
124.897, 8704.809
125.379, 8814.556
125.861, 8966.630
126.343, 9157.649
126.825, 9391.453
127.307, 9664.075
127.789, 9959.566
128.271, 10251.985
128.753, 10557.764
129.236, 10912.344
129.718, 11322.895
130.200, 11783.054
130.682, 12291.060
131.164, 12842.167
131.646, 13421.019
132.128, 14020.062
132.610, 14633.256
133.093, 15259.725
133.575, 15902.255
134.057, 16554.129
134.539, 17231.580
135.021, 17946.662
135.503, 18638.740
135.985, 19219.838
136.467, 19686.570
136.949, 20133.352
137.432, 20599.551
137.914, 21086.732
138.396, 21510.703
138.878, 21877.922
139.360, 22166.406
139.842, 22326.066
140.324, 22329.910
140.806, 22280.082
141.288, 22223.277
141.771, 22179.361
142.253, 22052.479
142.735, 21812.406
143.217, 21500.029
143.699, 21234.205
144.181, 21027.760
144.663, 20846.068
145.145, 20670.816
145.628, 20516.197
146.110, 20340.059
146.592, 20124.160
147.074, 19875.010
147.556, 19666.848
148.038, 19530.250
148.520, 19406.555
149.002, 19257.580
149.484, 19041.145
149.967, 18845.607
150.449, 18680.697
150.931, 18546.391
151.413, 18433.348
151.895, 18355.250
152.377, 18292.982
152.859, 18231.588
153.342, 18164.404
153.824, 18106.158
154.306, 18063.695
154.788, 18041.609
155.270, 18021.658
155.752, 17993.740
156.234, 17970.389
156.716, 17967.645
157.198, 17993.994
157.680, 18022.699
158.163, 18063.293
158.645, 18112.477
159.127, 18179.855
159.609, 18278.166
160.091, 18395.027
160.573, 18506.992
161.055, 18595.314
161.538, 18679.080
162.020, 18767.400
162.502, 18862.285
162.984, 18958.943
163.466, 19063.359
163.948, 19167.045
164.430, 19248.369
164.912, 19299.684
165.394, 19325.656
165.876, 19329.037
166.359, 19308.908
166.841, 19268.221
167.323, 19218.643
167.805, 19155.902
168.287, 19051.246
168.769, 18874.141
169.251, 18652.484
169.733, 18416.834
170.216, 18190.645
170.698, 17947.941
171.180, 17667.812
171.662, 17349.568
172.144, 17007.521
172.626, 16636.268
173.108, 16248.396
173.590, 15858.505
174.072, 15470.903
174.555, 15086.363
175.037, 14694.414
175.519, 14292.464
176.001, 13902.860
176.483, 13557.872
176.965, 13243.678
177.447, 12933.529
177.929, 12595.239
178.412, 12257.089
178.894, 11969.863
179.376, 11745.639
179.858, 11547.666
180.340, 11338.756
180.822, 11122.059
181.304, 10908.229
181.786, 10701.614
182.268, 10502.281
182.751, 10309.263
183.233, 10120.661
183.715, 9946.119
184.197, 9814.446
184.679, 9720.524
185.161, 9624.700
185.643, 9491.875
186.125, 9333.752
186.607, 9183.055
187.090, 9043.936
187.572, 8918.285
188.054, 8810.908
188.536, 8722.627
189.018, 8641.014
189.500, 8559.835
189.982, 8479.790
190.464, 8397.827
190.947, 8316.624
191.429, 8232.134
191.911, 8131.719
192.393, 8013.173
192.875, 7895.806
193.357, 7801.438
193.839, 7730.488
194.321, 7645.921
194.803, 7534.818
195.286, 7404.095
195.768, 7279.367
196.250, 7161.888
196.732, 7049.579
197.214, 6942.408
197.696, 6840.938
198.178, 6736.901
198.661, 6629.132
199.143, 6516.844
199.625, 6390.920
200.107, 6247.605
200.589, 6099.279
201.071, 5957.194
201.553, 5819.029
202.035, 5692.996
202.517, 5585.139
202.999, 5495.127
203.482, 5394.333
203.964, 5281.546
204.446, 5157.564
204.928, 5018.772
205.410, 4859.897
205.892, 4711.113
206.374, 4588.480
206.857, 4493.822
207.339, 4392.788
207.821, 4284.717
208.303, 4170.578
208.785, 4051.410
209.267, 3925.313
209.749, 3795.875
210.231, 3662.723
210.713, 3523.354
211.195, 3400.227
211.678, 3297.496
212.160, 3205.666
212.642, 3108.578
213.124, 3006.093
213.606, 2901.812
214.088, 2795.888
214.570, 2682.408
215.052, 2583.420
215.535, 2503.429
216.017, 2436.279
216.499, 2365.548
216.981, 2284.935
217.463, 2207.806
217.945, 2143.719
218.427, 2103.956
218.909, 2047.669
219.391, 1963.105
219.874, 1862.177
220.356, 1788.656
220.838, 1758.984
221.320, 1731.055
221.802, 1680.080
222.284, 1593.599
222.766, 1517.333
223.248, 1458.824
223.731, 1413.377
224.213, 1363.151
224.695, 1303.859
225.177, 1245.536
225.659, 1192.959
226.141, 1147.187
226.623, 1106.101
227.105, 1072.155
227.587, 1043.863
228.070, 1010.536
228.552, 968.844
229.034, 924.728
229.516, 883.072
229.998, 845.923
230.480, 810.572
230.962, 775.497
231.444, 739.936
231.926, 705.270
232.409, 672.920
232.891, 641.272
233.373, 609.909
233.855, 584.120
234.337, 548.235
234.819, 493.283
235.301, 422.741
235.783, 375.178
236.266, 363.597
236.748, 360.024
237.230, 344.212
237.712, 309.178
238.194, 275.881
238.676, 247.954
239.158, 225.025
239.640, 203.446
240.122, 182.786
240.605, 162.279
241.087, 140.889
241.569, 116.005
242.051, 94.079
242.533, 75.746
243.015, 60.969
243.497, 46.092
243.980, 31.062
244.462, 16.313
244.944, 0.884
245.426, 20.141
245.908, 30.918
246.390, 22.654
246.872, 2.460
247.354, 2.577
247.836, 39.404
248.318, 86.319
248.801, 108.616
249.283, 117.931
249.765, 108.378
250.247, 103.504
250.729, 102.971
251.211, 119.775
251.693, 114.141
252.176, 117.455
252.658, 120.948
253.140, 111.921
253.622, 126.000
254.104, 117.308
254.586, 117.772
255.068, 114.063
255.550, 119.388
256.032, 121.925
256.514, 123.059
256.997, 112.686
257.479, 111.015
257.961, 130.505
258.443, 168.885
258.925, 189.225
259.407, 186.446
259.889, 174.542
260.371, 165.498
260.854, 162.737
261.336, 153.539
261.818, 132.256
262.300, 101.330
262.782, 84.531
263.264, 86.228
263.746, 94.854
264.228, 101.535
264.711, 106.503
265.193, 109.799
265.675, 112.715
266.157, 114.368
266.639, 106.862
267.121, 84.862
267.603, 63.937
268.085, 59.726
268.567, 78.833
269.050, 86.203
269.532, 71.411
270.014, 40.003
270.496, 24.005
270.978, 28.111
271.460, 35.897
271.942, 32.938
272.424, 15.632
272.906, 7.422
273.389, 15.893
273.871, 35.297
274.353, 38.622
274.835, 21.279
275.317, 2.210
275.799, 1.688
276.281, 12.345
276.763, 16.799
277.246, 5.241
277.728, 17.191
278.210, 32.673
278.692, 39.381
279.174, 46.240
279.656, 61.799
280.138, 86.539
280.620, 104.260
281.103, 111.020
281.585, 110.885
282.067, 114.377
282.549, 121.653
283.031, 130.956
283.513, 143.042
283.995, 157.552
284.477, 165.489
284.959, 162.744
285.441, 156.947
285.924, 170.477
286.406, 204.716
286.888, 230.684
287.370, 218.587
287.852, 175.806
288.334, 157.088
288.816, 172.851
289.298, 206.699
289.781, 233.346
290.263, 252.818
290.745, 265.305
291.227, 265.787
291.709, 258.091
292.191, 258.646
292.673, 270.017
293.155, 286.528
293.638, 294.723
294.120, 297.161
294.602, 313.135
295.084, 303.494
295.566, 338.683
296.048, 362.904
296.530, 376.746
297.012, 349.313
297.494, 375.018
297.977, 379.332
298.459, 382.701
298.941, 415.687
299.423, 393.898
299.905, 426.271
300.387, 436.926
300.869, 457.419
301.351, 456.390
301.833, 461.918
302.316, 488.834
302.798, 503.733
303.280, 499.737
303.762, 520.124
304.244, 496.648
304.726, 511.789
305.208, 543.470
305.690, 539.959
306.173, 540.024
306.655, 529.832
307.137, 542.498
307.619, 563.941
308.101, 593.422
308.583, 612.905
309.065, 599.278
309.547, 570.471
310.030, 549.949
310.512, 551.273
310.994, 560.914
311.476, 572.144
311.958, 585.202
312.440, 593.708
312.922, 592.610
313.404, 585.883
313.886, 577.868
314.369, 561.641
314.851, 552.867
315.333, 565.240
315.815, 593.568
316.297, 613.605
316.779, 616.381
317.261, 608.873
317.743, 595.330
318.225, 567.624
318.708, 544.716
319.190, 535.157
319.672, 537.039
320.154, 542.294
320.636, 547.894
321.118, 554.635
321.600, 564.008
322.082, 584.450
322.565, 594.603
323.047, 581.417
323.529, 554.783
324.011, 537.836
324.493, 538.584
324.975, 547.475
325.457, 561.984
325.939, 587.522
326.422, 603.031
326.904, 601.781
327.386, 592.293
327.868, 588.608
328.350, 600.166
328.832, 605.645
329.314, 597.607
329.796, 570.987
330.278, 551.792
330.760, 540.682
331.243, 534.522
331.725, 530.452
332.207, 531.693
332.689, 534.191
333.171, 538.292
333.653, 543.841
334.135, 540.439
334.617, 522.017
335.100, 503.508
335.582, 501.479
336.064, 523.631
336.546, 539.578
337.028, 541.145
337.510, 531.217
337.992, 531.960
338.474, 548.147
338.957, 564.114
339.439, 563.291
339.921, 541.173
340.403, 528.920
340.885, 535.777
341.367, 554.258
341.849, 556.940
342.331, 541.507
342.813, 522.681
343.296, 506.800
343.778, 493.993
344.260, 492.347
344.742, 506.767
345.224, 527.301
345.706, 537.810
346.188, 538.473
346.670, 534.270
347.152, 530.670
347.635, 526.832
348.117, 515.488
348.599, 494.647
349.081, 472.814
349.563, 454.300
350.045, 441.492
350.527, 445.092
351.009, 490.827
351.491, 549.764
351.974, 570.984
352.456, 552.998
352.938, 523.133
353.420, 499.221
353.902, 482.279
354.384, 474.907
354.866, 484.781
355.349, 500.254
355.831, 514.527
356.313, 526.014
356.795, 524.069
357.277, 484.358
357.759, 433.973
358.241, 402.204
358.723, 408.228
359.205, 420.780
359.688, 423.653
360.170, 419.219
360.652, 414.467
361.134, 414.150
361.616, 413.352
362.098, 407.106
362.580, 389.714
363.062, 378.143
363.544, 386.829
364.027, 403.771
364.509, 405.899
364.991, 370.910
365.473, 334.669
365.955, 310.812
366.437, 301.919
366.919, 298.929
367.401, 310.233
367.884, 323.719
368.366, 325.180
368.848, 295.867
369.330, 274.603
369.812, 272.787
370.294, 292.491
370.776, 298.265
371.258, 279.469
371.741, 256.338
372.223, 245.203
372.705, 252.314
373.187, 259.393
373.669, 264.974
374.151, 268.704
374.633, 270.201
375.115, 271.097
375.597, 266.008
376.079, 248.251
376.562, 213.636
377.044, 190.551
377.526, 183.775
378.008, 186.357
378.490, 184.562
378.972, 177.919
379.454, 170.580
379.936, 165.363
380.419, 161.828
380.901, 153.818
381.383, 140.625
381.865, 126.425
382.347, 118.253
382.829, 114.888
383.311, 108.301
383.793, 91.717
384.276, 71.728
384.758, 64.385
385.240, 69.538
385.722, 72.956
386.204, 57.434
386.686, 31.955
387.168, 14.678
387.650, 10.980
388.132, 15.375
388.615, 25.667
389.097, 40.259
389.579, 52.886
390.061, 60.908
390.543, 64.522
391.025, 62.783
391.507, 53.394
391.989, 45.065
392.471, 46.900
392.954, 52.676
393.436, 51.484
393.918, 30.840
394.400, 9.643
394.882, 1.799
395.364, 1.153
395.846, 2.710
396.328, 16.470
396.810, 31.039
397.293, 35.524
397.775, 15.805
398.257, 0.597
398.739, 8.767
399.221, 8.706
399.703, 5.280
400.185, 10.584
400.668, 22.112
401.150, 18.283
401.632, 21.820
402.114, 37.241
402.596, 12.586
403.078, 33.368
403.560, 51.095
404.042, 28.179
404.524, 4.905
405.007, 2.317
405.489, 8.194
405.971, 18.769
406.453, 30.750
406.935, 40.123
407.417, 40.230
407.899, 30.727
408.381, 20.375
408.863, 10.454
409.346, 1.923
409.828, 0.159
410.310, 5.549
410.792, 10.003
411.274, 3.198
411.756, 10.590
412.238, 15.522
412.720, 3.319
413.203, 8.214
413.685, 10.944
414.167, 53.663
414.649, 90.410
415.131, 101.709
415.613, 98.830
416.095, 91.687
416.577, 79.929
417.060, 72.657
417.542, 82.426
418.024, 99.206
418.506, 108.640
418.988, 91.873
419.470, 77.629
419.952, 85.832
420.434, 114.598
420.916, 134.408
421.398, 124.886
421.881, 109.416
422.363, 104.198
422.845, 123.473
423.327, 139.135
423.809, 147.367
424.291, 149.368
424.773, 148.322
425.255, 137.450
425.738, 130.703
426.220, 133.334
426.702, 148.208
427.184, 162.969
427.666, 181.146
428.148, 196.400
428.630, 197.870
429.112, 176.167
429.595, 168.449
430.077, 189.031
430.559, 231.736
431.041, 253.005
431.523, 249.235
432.005, 239.280
432.487, 234.471
432.969, 234.971
433.451, 246.771
433.934, 274.629
434.416, 305.734
434.898, 315.562
435.380, 306.785
435.862, 298.974
436.344, 306.467
436.826, 320.875
437.308, 324.457
437.790, 316.041
438.273, 307.459
438.755, 309.256
439.237, 317.849
439.719, 327.555
440.201, 336.118
440.683, 345.476
441.165, 360.280
441.647, 378.066
442.129, 388.608
442.612, 381.795
443.094, 369.730
443.576, 358.225
444.058, 342.507
444.540, 339.720
445.022, 367.434
445.504, 408.652
445.987, 436.228
446.469, 433.550
446.951, 430.310
447.433, 435.629
447.915, 450.357
448.397, 457.021
448.879, 447.679
449.361, 437.736
449.843, 440.093
450.326, 462.509
450.808, 477.955
451.290, 481.412
451.772, 477.369
452.254, 479.774
452.736, 490.527
453.218, 498.862
453.700, 497.708
454.182, 486.727
454.665, 475.822
455.147, 465.562
455.629, 458.392
456.111, 453.643
456.593, 451.370
457.075, 456.240
457.557, 473.265
458.039, 494.481
458.522, 509.371
459.004, 519.209
459.486, 525.080
459.968, 522.994
460.450, 516.805
460.932, 510.053
461.414, 505.099
461.896, 500.820
462.379, 487.521
462.861, 473.237
463.343, 472.116
463.825, 509.881
464.307, 542.806
464.789, 547.995
465.271, 525.303
465.753, 509.055
466.235, 505.482
466.717, 510.823
467.200, 522.665
467.682, 551.637
468.164, 571.704
468.646, 577.128
469.128, 574.658
469.610, 580.611
470.092, 600.722
470.574, 617.932
471.057, 625.303
471.539, 622.866
472.021, 620.248
472.503, 616.547
472.985, 614.338
473.467, 619.507
473.949, 631.876
474.431, 633.628
474.914, 616.509
475.396, 592.640
475.878, 588.823
476.360, 603.073
476.842, 617.274
477.324, 617.430
477.806, 611.318
478.288, 610.298
478.770, 604.072
479.253, 617.846
479.735, 626.789
480.217, 631.162
480.699, 617.216
481.181, 626.961
481.663, 627.230
482.145, 627.126
482.627, 640.247
483.109, 629.049
483.592, 642.007
484.074, 645.353
484.556, 653.128
485.038, 649.404
485.520, 672.351
486.002, 660.259
486.484, 637.690
486.966, 635.743
487.448, 673.471
487.931, 700.637
488.413, 704.749
488.895, 688.420
489.377, 674.176
489.859, 661.177
490.341, 653.266
490.823, 656.215
491.306, 670.491
491.788, 678.154
492.270, 677.380
492.752, 671.525
493.234, 663.378
493.716, 653.683
494.198, 646.479
494.680, 644.305
495.162, 645.235
495.645, 648.941
496.127, 654.668
496.609, 654.773
497.091, 634.544
497.573, 609.506
498.055, 598.424
498.537, 608.327
499.019, 623.865
499.501, 640.021
499.984, 655.973
500.466, 670.641
500.948, 689.281
501.430, 701.171
501.912, 703.350
502.394, 695.598
502.876, 678.071
503.358, 630.218
503.841, 588.956
504.323, 576.688
504.805, 609.991
505.287, 639.458
505.769, 667.924
506.251, 688.690
506.733, 685.519
507.215, 651.824
507.698, 623.183
508.180, 613.715
508.662, 619.600
509.144, 621.162
509.626, 618.312
510.108, 612.763
510.590, 605.408
511.072, 596.670
511.554, 586.935
512.036, 575.198
512.519, 566.063
513.001, 567.463
513.483, 574.568
513.965, 580.399
514.447, 582.600
514.929, 582.546
515.411, 575.304
515.893, 562.884
516.375, 557.656
516.858, 572.135
517.340, 590.718
517.822, 597.312
518.304, 587.173
518.786, 573.012
519.268, 548.949
519.750, 524.797
520.232, 515.525
520.715, 533.724
521.197, 549.192
521.679, 552.016
522.161, 546.102
522.643, 542.370
523.125, 540.751
523.607, 539.335
524.089, 535.531
524.571, 529.703
525.054, 513.523
525.536, 477.724
526.018, 442.431
526.500, 438.232
526.982, 459.065
527.464, 482.418
527.946, 504.443
528.429, 519.331
528.911, 517.254
529.393, 500.627
529.875, 482.046
530.357, 466.944
530.839, 455.006
531.321, 445.812
531.803, 439.521
532.286, 432.741
532.768, 421.934
533.250, 410.364
533.732, 403.156
534.214, 403.582
534.696, 406.596
535.178, 418.338
535.660, 433.123
536.142, 418.308
536.625, 352.234
537.107, 296.704
537.589, 288.683
538.071, 335.558
538.553, 353.466
539.035, 336.856
539.517, 308.928
539.999, 296.820
540.481, 299.360
540.964, 302.986
541.446, 302.936
541.928, 301.140
542.410, 301.375
542.892, 303.385
543.374, 304.572
543.856, 302.542
544.338, 298.712
544.820, 295.308
545.303, 293.474
545.785, 288.685
546.267, 272.573
546.749, 255.021
547.231, 244.288
547.713, 249.606
548.195, 252.425
548.677, 250.924
549.159, 245.162
549.642, 235.095
550.124, 217.448
550.606, 200.863
551.088, 187.371
551.570, 177.031
552.052, 168.354
552.534, 161.138
553.016, 156.170
553.499, 155.243
553.981, 157.890
554.463, 158.595
554.945, 156.352
555.427, 153.644
555.909, 156.215
556.391, 161.346
556.873, 160.738
557.356, 145.639
557.838, 128.012
558.320, 120.854
558.802, 121.965
559.284, 120.925
559.766, 108.203
560.248, 94.989
560.730, 89.303
561.213, 94.801
561.695, 98.098
562.177, 98.132
562.659, 94.136
563.141, 84.956
563.623, 64.872
564.105, 49.142
564.587, 39.593
565.069, 35.179
565.552, 32.985
566.034, 32.779
566.516, 35.880
566.998, 45.763
567.480, 60.015
567.962, 62.096
568.444, 51.148
568.926, 41.715
569.408, 15.128
569.891, 3.899
570.373, 18.607
570.855, 6.127
571.337, 19.376
571.819, 21.759
572.301, 19.240
572.783, 4.258
573.265, 11.734
573.747, 20.148
574.230, 2.659
574.712, 32.122
575.194, 9.853
575.676, 10.391
576.158, 0.518
576.640, 13.242
577.122, 19.014
577.604, 2.222
578.086, 2.045
578.569, 13.359
579.051, 2.943
579.533, 38.720
580.015, 34.015
580.497, 11.864
580.979, 26.272
581.461, 15.592
581.943, 14.504
582.426, 56.926
582.908, 41.944
583.390, 32.871
583.872, 28.435
584.354, 28.514
584.836, 26.653
585.318, 17.234
585.800, 5.519
586.282, 5.578
586.765, 17.766
587.247, 22.370
587.729, 10.867
588.211, 7.026
588.693, 19.437
589.175, 24.540
589.657, 26.322
590.140, 23.117
590.622, 17.282
591.104, 18.029
591.586, 28.054
592.068, 34.341
592.550, 28.490
593.032, 13.143
593.514, 6.300
593.996, 8.255
594.479, 10.647
594.961, 4.778
595.443, 5.478
595.925, 13.475
596.407, 18.855
596.889, 18.796
597.371, 4.640
597.853, 14.693
598.335, 26.044
598.818, 16.767
599.300, 7.310
599.782, 5.931
600.264, 10.576
600.746, 10.677
601.228, 1.016
601.710, 9.198
602.192, 5.651
602.674, 11.546
603.157, 12.552
603.639, 8.331
604.121, 31.634
604.603, 39.461
605.085, 32.920
605.567, 29.796
606.049, 32.455
606.531, 37.878
607.013, 44.259
607.496, 50.381
607.978, 52.763
608.460, 47.527
608.942, 40.557
609.424, 35.871
609.906, 33.203
610.388, 31.492
610.870, 31.244
611.353, 31.045
611.835, 29.415
612.317, 25.537
612.799, 25.680
613.281, 33.824
613.763, 42.308
614.245, 45.660
614.727, 42.330
615.209, 38.581
615.692, 32.392
616.174, 30.118
616.656, 47.644
617.138, 82.771
617.620, 103.649
618.102, 97.608
618.584, 76.489
619.067, 51.359
619.549, 25.543
620.031, 11.118
620.513, 24.699
620.995, 45.010
621.477, 53.960
621.959, 50.686
622.441, 51.748
622.923, 67.881
623.406, 86.639
623.888, 100.650
624.370, 111.892
624.852, 111.827
625.334, 90.486
625.816, 66.930
626.298, 68.879
626.780, 104.149
627.263, 120.980
627.745, 103.517
628.227, 70.199
628.709, 63.746
629.191, 80.824
629.673, 101.028
630.155, 120.741
630.637, 134.649
631.119, 125.864
631.602, 97.442
