##NAMES=Saneroite
##RRUFFID=R060488
##IDEAL CHEMISTRY=Na_2_(Mn^2+^,Mn^3+^)_10_V^5+^Si_11_O_34_(OH)_4_
##LOCALITY=Molinello mine, Val Graveglia (Graveglia Valley), Ne, Genova, Liguria, Italy
##OWNER=RRUFF
##SOURCE=Michael Scott
##DESCRIPTION=Orange colored blebs associated with white quartz, black braunite and brown parsettensite
##STATUS=The identification of this mineral has been confirmed by single-crystal X-ray diffraction.
##URL=rruff.info/R060488
88.256, 0.000
88.738, 4.987
89.220, 10.984
89.702, 16.454
90.184, 14.951
90.666, 13.071
91.148, 16.076
91.631, 26.286
92.113, 39.730
92.595, 52.665
93.077, 59.473
93.559, 61.679
94.041, 62.787
94.523, 63.116
95.005, 63.074
95.487, 62.217
95.970, 71.566
96.452, 89.189
96.934, 108.299
97.416, 120.507
97.898, 114.482
98.380, 104.810
98.862, 88.310
99.344, 80.950
99.826, 70.119
100.309, 59.273
100.791, 53.579
101.273, 38.759
101.755, 33.244
102.237, 23.522
102.719, 13.898
103.201, 2.215
103.683, 13.858
104.165, 25.436
104.648, 31.368
105.130, 31.856
105.612, 29.638
106.094, 24.500
106.576, 16.674
107.058, 6.367
107.540, 7.339
108.022, 22.597
108.505, 40.083
108.987, 60.244
109.469, 79.307
109.951, 95.360
110.433, 110.503
110.915, 127.655
111.397, 147.668
111.879, 168.693
112.362, 189.847
112.844, 207.388
113.326, 232.288
113.808, 271.126
114.290, 319.020
114.772, 363.674
115.254, 397.963
115.736, 430.699
116.218, 467.107
116.701, 511.710
117.183, 556.281
117.665, 597.318
118.147, 635.222
118.629, 673.904
119.111, 717.971
119.593, 762.533
120.075, 801.862
120.558, 834.050
121.040, 860.756
121.522, 885.577
122.004, 908.817
122.486, 920.768
122.968, 913.044
123.450, 889.157
123.932, 855.671
124.414, 808.799
124.897, 756.609
125.379, 708.558
125.861, 666.077
126.343, 626.982
126.825, 586.217
127.307, 545.811
127.789, 514.160
128.271, 501.068
128.753, 500.775
129.236, 499.187
129.718, 492.246
130.200, 485.626
130.682, 494.583
131.164, 518.830
131.646, 537.652
132.128, 524.251
132.610, 484.326
133.093, 462.100
133.575, 472.907
134.057, 508.244
134.539, 539.262
135.021, 565.995
135.503, 588.186
135.985, 604.025
136.467, 613.213
136.949, 621.045
137.432, 627.456
137.914, 632.566
138.396, 647.128
138.878, 676.936
139.360, 707.607
139.842, 712.999
140.324, 684.784
140.806, 654.893
141.288, 635.388
141.771, 627.444
142.253, 626.020
142.735, 634.012
143.217, 647.658
143.699, 655.358
144.181, 652.473
144.663, 650.507
145.145, 655.586
145.628, 670.272
146.110, 687.133
146.592, 707.552
147.074, 730.665
147.556, 747.714
148.038, 753.666
148.520, 757.558
149.002, 765.172
149.484, 778.651
149.967, 793.585
150.449, 812.294
150.931, 835.923
151.413, 849.842
151.895, 847.582
152.377, 838.743
152.859, 831.588
153.342, 832.209
153.824, 829.303
154.306, 818.719
154.788, 798.080
155.270, 781.412
155.752, 775.578
156.234, 773.607
156.716, 766.158
157.198, 742.487
157.680, 720.456
158.163, 708.739
158.645, 714.267
159.127, 714.208
159.609, 696.908
160.091, 669.849
160.573, 648.057
161.055, 641.129
161.538, 636.917
162.020, 628.818
162.502, 613.150
162.984, 598.332
163.466, 589.156
163.948, 584.108
164.430, 577.961
164.912, 566.168
165.394, 552.949
165.876, 541.715
166.359, 532.914
166.841, 527.020
167.323, 522.983
167.805, 521.397
168.287, 526.070
168.769, 545.343
169.251, 570.262
169.733, 590.667
170.216, 600.052
170.698, 605.603
171.180, 613.291
171.662, 623.164
172.144, 631.539
172.626, 632.215
173.108, 630.014
173.590, 633.252
174.072, 650.484
174.555, 672.472
175.037, 688.378
175.519, 697.265
176.001, 706.293
176.483, 724.090
176.965, 747.575
177.447, 768.069
177.929, 781.309
178.412, 788.894
178.894, 792.025
179.376, 789.886
179.858, 786.749
180.340, 786.101
180.822, 788.160
181.304, 793.906
181.786, 807.542
182.268, 825.130
182.751, 836.492
183.233, 838.420
183.715, 838.002
184.197, 848.016
184.679, 867.375
185.161, 883.542
185.643, 888.593
186.125, 883.634
186.607, 871.746
187.090, 849.832
187.572, 827.209
188.054, 823.808
188.536, 839.483
189.018, 858.138
189.500, 869.456
189.982, 873.919
190.464, 871.743
190.947, 858.425
191.429, 840.081
191.911, 838.117
192.393, 854.860
192.875, 872.233
193.357, 872.674
193.839, 856.498
194.321, 840.740
194.803, 829.412
195.286, 822.336
195.768, 816.452
196.250, 811.670
196.732, 809.077
197.214, 809.784
197.696, 813.787
198.178, 820.451
198.661, 830.370
199.143, 843.255
199.625, 856.623
200.107, 870.855
200.589, 885.186
201.071, 898.052
201.553, 909.004
202.035, 922.213
202.517, 939.937
202.999, 962.089
203.482, 981.752
203.964, 997.162
204.446, 1012.982
204.928, 1036.033
205.410, 1066.997
205.892, 1102.036
206.374, 1140.524
206.857, 1183.081
207.339, 1223.261
207.821, 1261.244
208.303, 1296.435
208.785, 1327.490
209.267, 1353.789
209.749, 1378.235
210.231, 1401.536
210.713, 1423.532
211.195, 1447.351
211.678, 1475.518
212.160, 1503.871
212.642, 1522.531
213.124, 1529.356
213.606, 1532.797
214.088, 1536.809
214.570, 1542.677
215.052, 1544.346
215.535, 1539.609
216.017, 1531.789
216.499, 1529.075
216.981, 1531.974
217.463, 1538.605
217.945, 1549.012
218.427, 1564.886
218.909, 1577.457
219.391, 1583.628
219.874, 1586.728
220.356, 1599.080
220.838, 1627.980
221.320, 1653.133
221.802, 1663.716
222.284, 1658.221
222.766, 1642.001
223.248, 1613.191
223.731, 1574.051
224.213, 1533.530
224.695, 1488.909
225.177, 1446.810
225.659, 1411.528
226.141, 1387.790
226.623, 1360.457
227.105, 1327.753
227.587, 1290.669
228.070, 1253.450
228.552, 1218.658
229.034, 1180.450
229.516, 1134.597
229.998, 1076.399
230.480, 1020.847
230.962, 970.977
231.444, 925.462
231.926, 873.780
232.409, 811.466
232.891, 749.291
233.373, 694.326
233.855, 650.895
234.337, 606.403
234.819, 558.969
235.301, 508.748
235.783, 460.244
236.266, 413.249
236.748, 368.299
237.230, 325.908
237.712, 285.705
238.194, 247.988
238.676, 213.696
239.158, 182.401
239.640, 150.538
240.122, 114.522
240.605, 82.176
241.087, 60.173
241.569, 53.908
242.051, 47.241
242.533, 38.867
243.015, 28.682
243.497, 14.930
243.980, 5.511
244.462, 26.029
244.944, 41.739
245.426, 52.578
245.908, 58.465
246.390, 56.212
246.872, 46.977
247.354, 49.052
247.836, 72.785
248.318, 95.791
248.801, 98.000
249.283, 66.468
249.765, 41.465
250.247, 31.388
250.729, 35.117
251.211, 31.609
251.693, 15.643
252.176, 1.112
252.658, 8.461
253.140, 1.700
253.622, 3.743
254.104, 5.954
254.586, 5.177
255.068, 1.112
255.550, 5.655
256.032, 17.450
256.514, 38.924
256.997, 79.388
257.479, 104.502
257.961, 103.727
258.443, 80.409
258.925, 74.734
259.407, 93.752
259.889, 118.824
260.371, 133.671
260.854, 131.890
261.336, 136.055
261.818, 153.549
262.300, 181.912
262.782, 194.176
263.264, 181.502
263.746, 165.873
264.228, 166.570
264.711, 188.644
265.193, 209.387
265.675, 227.165
266.157, 242.020
266.639, 250.907
267.121, 250.254
267.603, 248.915
268.085, 255.102
268.567, 271.347
269.050, 286.056
269.532, 296.214
270.014, 303.237
270.496, 316.452
270.978, 338.420
271.460, 359.806
271.942, 373.265
272.424, 377.551
272.906, 380.050
273.389, 380.861
273.871, 380.958
274.353, 385.006
274.835, 393.749
275.317, 403.837
275.799, 413.501
276.281, 422.844
276.763, 430.114
277.246, 434.767
277.728, 437.240
278.210, 438.538
278.692, 438.140
279.174, 438.552
279.656, 442.288
280.138, 449.478
280.620, 456.004
281.103, 462.899
281.585, 467.378
282.067, 458.977
282.549, 435.694
283.031, 413.498
283.513, 404.640
283.995, 408.429
284.477, 410.894
284.959, 411.112
285.441, 408.258
285.924, 398.904
286.406, 382.763
286.888, 366.760
287.370, 358.260
287.852, 355.439
288.334, 344.295
288.816, 321.267
289.298, 293.143
289.781, 270.016
290.263, 251.885
290.745, 238.743
291.227, 236.098
291.709, 239.722
292.191, 230.958
292.673, 205.431
293.155, 174.476
293.638, 153.598
294.120, 142.335
294.602, 136.037
295.084, 134.450
295.566, 135.916
296.048, 135.734
296.530, 133.227
297.012, 130.720
297.494, 131.915
297.977, 135.999
298.459, 139.354
298.941, 138.070
299.423, 135.441
299.905, 137.487
300.387, 144.922
300.869, 154.946
301.351, 168.269
301.833, 182.392
302.316, 190.224
302.798, 183.252
303.280, 170.554
303.762, 163.794
304.244, 164.037
304.726, 166.943
305.208, 168.924
305.690, 168.804
306.173, 166.652
306.655, 163.435
307.137, 161.131
307.619, 159.917
308.101, 158.982
308.583, 156.042
309.065, 154.360
309.547, 149.983
310.030, 136.591
310.512, 97.626
310.994, 58.997
311.476, 41.398
311.958, 43.265
312.440, 44.721
312.922, 32.694
313.404, 15.769
313.886, 2.593
314.369, 2.229
314.851, 0.069
315.333, 12.770
315.815, 34.508
316.297, 55.371
316.779, 72.991
317.261, 87.151
317.743, 97.718
318.225, 102.699
318.708, 106.351
319.190, 111.920
319.672, 117.684
320.154, 117.792
320.636, 108.727
321.118, 94.761
321.600, 77.528
322.082, 52.192
322.565, 31.756
323.047, 23.524
323.529, 22.187
324.011, 15.524
324.493, 1.865
324.975, 21.919
325.457, 41.118
325.939, 56.441
326.422, 76.649
326.904, 106.083
327.386, 140.161
327.868, 170.939
328.350, 193.105
328.832, 217.383
329.314, 245.604
329.796, 276.366
330.278, 316.304
330.760, 367.424
331.243, 426.160
331.725, 489.199
332.207, 559.983
332.689, 630.130
333.171, 696.362
333.653, 758.522
334.135, 824.595
334.617, 896.938
335.100, 970.007
335.582, 1037.058
336.064, 1095.635
336.546, 1154.443
337.028, 1216.133
337.510, 1279.504
337.992, 1339.898
338.474, 1399.429
338.957, 1451.703
339.439, 1487.758
339.921, 1503.722
340.403, 1529.833
340.885, 1573.734
341.367, 1628.376
341.849, 1670.597
342.331, 1699.923
342.813, 1721.778
343.296, 1739.793
343.778, 1753.844
344.260, 1760.642
344.742, 1757.654
345.224, 1751.458
345.706, 1756.768
346.188, 1773.294
346.670, 1785.769
347.152, 1782.438
347.635, 1767.830
348.117, 1757.639
348.599, 1752.961
349.081, 1751.706
349.563, 1752.839
350.045, 1755.521
350.527, 1756.889
351.009, 1756.128
351.491, 1752.707
351.974, 1743.251
352.456, 1727.141
352.938, 1714.073
353.420, 1717.586
353.902, 1729.769
354.384, 1736.008
354.866, 1723.611
355.349, 1708.034
355.831, 1703.730
356.313, 1710.063
356.795, 1720.423
357.277, 1734.075
357.759, 1748.417
358.241, 1759.775
358.723, 1761.181
359.205, 1767.359
359.688, 1792.899
360.170, 1831.765
360.652, 1863.136
361.134, 1859.866
361.616, 1857.630
362.098, 1882.688
362.580, 1955.091
363.062, 2022.906
363.544, 2067.718
364.027, 2097.550
364.509, 2127.846
364.991, 2151.791
365.473, 2185.858
365.955, 2238.055
366.437, 2313.767
366.919, 2391.076
367.401, 2468.129
367.884, 2544.930
368.366, 2621.061
368.848, 2697.434
369.330, 2772.043
369.812, 2843.670
370.294, 2911.749
370.776, 2988.006
371.258, 3083.766
371.741, 3175.087
372.223, 3240.746
372.705, 3262.938
373.187, 3295.334
373.669, 3350.895
374.151, 3422.623
374.633, 3470.995
375.115, 3492.227
375.597, 3499.256
376.079, 3499.476
376.562, 3493.049
377.044, 3478.701
377.526, 3455.703
378.008, 3425.735
378.490, 3394.658
378.972, 3363.719
379.454, 3322.292
379.936, 3262.428
380.419, 3186.054
380.901, 3105.469
381.383, 3019.858
381.865, 2935.495
382.347, 2865.354
382.829, 2806.333
383.311, 2742.679
383.793, 2664.506
384.276, 2579.635
384.758, 2504.889
385.240, 2440.389
385.722, 2374.054
386.204, 2284.727
386.686, 2186.338
387.168, 2108.783
387.650, 2065.278
388.132, 2034.713
388.615, 2000.569
389.097, 1962.000
389.579, 1917.364
390.061, 1857.842
390.543, 1795.679
391.025, 1742.014
391.507, 1699.225
391.989, 1663.626
392.471, 1638.679
392.954, 1619.004
393.436, 1595.668
393.918, 1569.127
394.400, 1535.286
394.882, 1488.578
395.364, 1427.106
395.846, 1371.540
396.328, 1328.432
396.810, 1292.501
397.293, 1258.414
397.775, 1226.257
398.257, 1194.877
398.739, 1165.726
399.221, 1138.519
399.703, 1105.766
400.185, 1062.076
400.668, 1017.372
401.150, 976.055
401.632, 932.317
402.114, 903.634
402.596, 898.858
403.078, 906.745
403.560, 898.604
404.042, 868.846
404.524, 835.468
405.007, 804.718
405.489, 776.842
405.971, 750.928
406.453, 727.463
406.935, 704.252
407.417, 677.050
407.899, 645.635
408.381, 619.605
408.863, 603.381
409.346, 594.134
409.828, 582.684
410.310, 568.907
410.792, 553.991
411.274, 542.881
411.756, 532.149
412.238, 507.015
412.720, 456.803
413.203, 406.805
413.685, 395.966
414.167, 416.117
414.649, 434.223
415.131, 428.987
415.613, 411.729
416.095, 393.839
416.577, 376.130
417.060, 363.453
417.542, 360.600
418.024, 363.565
418.506, 366.615
418.988, 369.704
419.470, 370.302
419.952, 364.716
420.434, 354.051
420.916, 349.594
421.398, 356.270
421.881, 368.895
422.363, 384.363
422.845, 406.506
423.327, 426.231
423.809, 440.850
424.291, 452.056
424.773, 464.957
425.255, 480.520
425.738, 497.122
426.220, 514.878
426.702, 534.734
427.184, 551.999
427.666, 565.092
428.148, 577.264
428.630, 593.172
429.112, 615.017
429.595, 633.658
430.077, 644.919
430.559, 650.765
431.041, 665.518
431.523, 691.402
432.005, 717.901
432.487, 738.807
432.969, 754.007
433.451, 759.776
433.934, 753.156
434.416, 742.151
434.898, 740.232
435.380, 746.577
435.862, 754.792
436.344, 765.038
436.826, 774.094
437.308, 775.185
437.790, 767.877
438.273, 756.406
438.755, 739.661
439.237, 722.263
439.719, 712.304
440.201, 719.020
440.683, 727.226
441.165, 724.808
441.647, 713.846
442.129, 703.695
442.612, 702.039
443.094, 700.709
443.576, 693.625
444.058, 677.700
444.540, 661.621
445.022, 648.635
445.504, 636.808
445.987, 623.208
446.469, 607.896
446.951, 590.092
447.433, 569.149
447.915, 545.132
448.397, 519.761
448.879, 490.815
449.361, 462.846
449.843, 440.199
450.326, 425.816
450.808, 408.893
451.290, 388.642
451.772, 365.321
452.254, 339.750
452.736, 312.194
453.218, 282.300
453.700, 246.029
454.182, 204.480
454.665, 177.730
455.147, 168.826
455.629, 164.194
456.111, 147.286
456.593, 120.610
457.075, 95.282
457.557, 75.314
458.039, 58.421
458.522, 41.000
459.004, 23.383
459.486, 9.556
459.968, 2.823
460.450, 1.001
460.932, 3.264
461.414, 11.545
461.896, 16.531
462.379, 7.588
462.861, 7.790
463.343, 17.456
463.825, 14.513
464.307, 7.478
464.789, 1.363
465.271, 11.877
465.753, 20.937
466.235, 31.077
466.717, 37.480
467.200, 36.854
467.682, 19.404
468.164, 7.878
468.646, 3.750
469.128, 5.462
469.610, 10.735
470.092, 24.704
470.574, 32.279
471.057, 25.170
471.539, 2.359
472.021, 8.767
472.503, 4.335
472.985, 1.714
473.467, 8.039
473.949, 33.412
474.431, 52.878
474.914, 61.482
475.396, 61.985
475.878, 55.975
476.360, 44.490
476.842, 37.013
477.324, 44.809
477.806, 58.796
478.288, 62.282
478.770, 53.253
479.253, 41.355
479.735, 33.171
480.217, 27.168
480.699, 21.536
481.181, 16.346
481.663, 9.955
482.145, 4.186
482.627, 1.858
483.109, 14.682
483.592, 48.227
484.074, 81.345
484.556, 101.065
485.038, 98.221
485.520, 99.695
486.002, 110.059
486.484, 124.448
486.966, 138.442
487.448, 159.652
487.931, 168.579
488.413, 155.328
488.895, 123.117
489.377, 109.297
489.859, 120.356
490.341, 133.745
490.823, 134.144
491.306, 121.600
491.788, 108.424
492.270, 94.818
492.752, 83.107
493.234, 77.562
493.716, 77.839
494.198, 80.406
494.680, 89.107
495.162, 95.757
495.645, 83.077
496.127, 52.876
496.609, 24.656
497.091, 11.557
497.573, 7.715
498.055, 7.025
498.537, 9.606
499.019, 12.310
499.501, 12.426
499.984, 11.599
500.466, 12.455
500.948, 19.883
501.430, 24.607
501.912, 21.821
502.394, 11.616
502.876, 6.559
503.358, 9.598
503.841, 15.252
504.323, 20.245
504.805, 21.620
505.287, 27.749
505.769, 43.641
506.251, 61.995
506.733, 64.600
507.215, 45.446
507.698, 36.304
508.180, 52.674
508.662, 88.692
509.144, 112.444
509.626, 123.134
510.108, 128.003
510.590, 131.898
511.072, 135.327
511.554, 138.887
512.036, 142.275
512.519, 147.489
513.001, 157.216
513.483, 169.776
513.965, 182.479
514.447, 194.153
514.929, 207.541
515.411, 225.109
515.893, 245.505
516.375, 262.239
516.858, 268.649
517.340, 273.043
517.822, 281.492
518.304, 299.266
518.786, 314.637
519.268, 322.334
519.750, 327.367
520.232, 339.102
520.715, 365.315
521.197, 386.522
521.679, 397.678
522.161, 399.350
522.643, 397.590
523.125, 389.913
523.607, 383.048
524.089, 384.988
524.571, 395.480
525.054, 399.793
525.536, 395.796
526.018, 387.985
526.500, 382.714
526.982, 378.429
527.464, 370.702
527.946, 356.219
528.429, 339.318
528.911, 325.387
529.393, 313.572
529.875, 299.842
530.357, 279.274
530.839, 258.067
531.321, 242.439
531.803, 235.643
532.286, 223.797
532.768, 195.062
533.250, 162.020
533.732, 141.025
534.214, 147.689
534.696, 150.780
535.178, 145.012
535.660, 131.049
536.142, 113.696
536.625, 90.066
537.107, 69.551
537.589, 57.808
538.071, 55.993
538.553, 49.731
539.035, 37.003
539.517, 25.437
539.999, 26.768
540.481, 38.910
540.964, 45.965
541.446, 42.406
541.928, 33.943
542.410, 27.765
542.892, 23.802
543.374, 21.866
543.856, 25.385
544.338, 28.604
544.820, 24.256
545.303, 11.440
545.785, 1.319
546.267, 0.348
546.749, 2.676
547.231, 7.128
547.713, 14.757
548.195, 20.752
548.677, 23.707
549.159, 24.689
549.642, 26.082
550.124, 28.849
550.606, 30.412
551.088, 28.967
551.570, 24.788
552.052, 26.422
552.534, 35.886
553.016, 45.068
553.499, 46.499
553.981, 41.014
554.463, 38.063
554.945, 39.077
555.427, 40.152
555.909, 35.057
556.391, 25.830
556.873, 18.097
557.356, 13.354
557.838, 11.658
558.320, 16.818
558.802, 26.707
559.284, 30.883
559.766, 17.769
560.248, 1.481
560.730, 9.150
561.213, 11.788
561.695, 11.017
562.177, 3.045
562.659, 5.413
563.141, 7.868
563.623, 0.533
564.105, 6.944
564.587, 9.679
565.069, 9.826
565.552, 10.638
566.034, 12.444
566.516, 12.843
566.998, 9.771
567.480, 4.194
567.962, 1.721
568.444, 2.472
568.926, 4.684
569.408, 8.422
569.891, 12.247
570.373, 11.525
570.855, 3.111
571.337, 1.957
571.819, 10.543
572.301, 31.844
572.783, 47.177
573.265, 47.521
573.747, 44.204
574.230, 40.009
574.712, 35.438
575.194, 33.214
575.676, 37.099
576.158, 40.383
576.640, 39.431
577.122, 32.057
577.604, 30.606
578.086, 37.335
578.569, 46.714
579.051, 54.715
579.533, 61.764
580.015, 61.094
580.497, 48.892
580.979, 32.995
581.461, 28.549
581.943, 34.151
582.426, 41.273
582.908, 49.038
583.390, 54.302
583.872, 50.318
584.354, 38.175
584.836, 28.167
585.318, 29.786
585.800, 34.059
586.282, 33.128
586.765, 23.058
587.247, 15.602
587.729, 15.416
588.211, 18.807
588.693, 21.440
589.175, 24.457
589.657, 24.770
590.140, 22.109
590.622, 16.469
591.104, 6.666
591.586, 9.059
592.068, 22.278
592.550, 26.645
593.032, 24.574
593.514, 27.162
593.996, 33.902
594.479, 55.256
594.961, 124.375
595.443, 209.703
595.925, 243.896
596.407, 203.134
596.889, 153.132
597.371, 140.070
597.853, 151.340
598.335, 167.934
598.818, 182.073
599.300, 200.780
599.782, 228.085
600.264, 262.545
600.746, 297.108
601.228, 328.017
601.710, 363.937
602.192, 409.440
602.674, 465.656
603.157, 511.611
603.639, 542.924
604.121, 574.428
604.603, 620.640
605.085, 680.225
605.567, 738.534
606.049, 792.596
606.531, 846.729
607.013, 901.010
607.496, 959.155
607.978, 1029.984
608.460, 1125.600
608.942, 1225.964
609.424, 1316.137
609.906, 1398.155
610.388, 1482.007
610.870, 1570.707
611.353, 1661.868
611.835, 1751.821
612.317, 1841.083
612.799, 1933.542
613.281, 2027.320
613.763, 2125.959
614.245, 2234.136
614.727, 2359.571
615.209, 2464.387
615.692, 2542.556
616.174, 2606.517
616.656, 2680.519
