##NAMES=Schmitterite
##RRUFFID=R060524
##IDEAL CHEMISTRY=(UO_2_)Te^4+^O_3_
##LOCALITY=Moctezuma mine, Moctezuma, Sonora, Mexico
##OWNER=RRUFF
##SOURCE=Michael Scott
##DESCRIPTION=Pale yellow rosette associated with green emmonsite, R060802
##STATUS=The identification of this mineral has been made only by X-ray diffraction.
##URL=rruff.info/R060524
156.7175, 0.0000000E+00
157.1996, 62.01953
157.6817, 61.77734
158.1639, 9.570313
158.6460, 33.03516
159.1281, 27.05078
159.6102, 32.47656
160.0923, 131.1953
160.5744, 243.6016
161.0566, 340.5625
161.5387, 447.8477
162.0208, 581.8164
162.5029, 753.2188
162.9850, 934.1211
163.4671, 1125.238
163.9493, 1316.832
164.4314, 1481.520
164.9135, 1564.324
165.3956, 1629.531
165.8777, 1738.461
166.3598, 1962.672
166.8420, 2198.812
167.3241, 2376.469
167.8062, 2500.680
168.2883, 2638.883
168.7704, 2840.734
169.2525, 3084.586
169.7346, 3341.738
170.2168, 3587.406
170.6989, 3848.109
171.1810, 4141.148
171.6631, 4469.031
172.1452, 4834.621
172.6273, 5240.098
173.1095, 5686.328
173.5916, 6185.656
174.0737, 6757.418
174.5558, 7381.418
175.0379, 8018.895
175.5201, 8664.641
176.0022, 9351.707
176.4843, 10139.49
176.9664, 10994.27
177.4485, 11827.85
177.9306, 12560.65
178.4128, 13240.49
178.8949, 13968.59
179.3770, 14770.08
179.8591, 15598.91
180.3412, 16397.89
180.8233, 17178.65
181.3055, 17959.31
181.7876, 18767.64
182.2697, 19588.32
182.7518, 20416.60
183.2339, 21259.86
183.7160, 22083.14
184.1981, 22802.54
184.6803, 23420.50
185.1624, 23992.59
185.6445, 24601.62
186.1266, 25210.63
186.6087, 25695.55
187.0908, 26006.73
187.5730, 26187.82
188.0551, 26320.36
188.5372, 26405.77
189.0193, 26448.59
189.5014, 26469.80
189.9835, 26469.17
190.4657, 26410.49
190.9478, 26259.74
191.4299, 26021.39
191.9120, 25708.08
192.3941, 25304.80
192.8762, 24863.61
193.3584, 24430.41
193.8405, 24010.16
194.3226, 23605.55
194.8047, 23224.27
195.2868, 22864.21
195.7689, 22517.06
196.2511, 22188.65
196.7332, 21849.01
197.2153, 21463.90
197.6974, 21031.76
198.1795, 20573.89
198.6616, 20129.48
199.1437, 19689.97
199.6259, 19088.65
200.1080, 18304.35
200.5901, 17396.61
201.0722, 16444.68
201.5543, 15435.08
202.0364, 14429.45
202.5186, 13431.53
203.0007, 12433.85
203.4828, 11535.63
203.9649, 10751.66
204.4470, 10038.75
204.9291, 9328.418
205.4113, 8605.664
205.8934, 7920.035
206.3755, 7292.895
206.8576, 6726.082
207.3397, 6202.156
207.8218, 5724.242
208.3040, 5286.938
208.7861, 4882.348
209.2682, 4523.566
209.7503, 4178.133
210.2324, 3827.012
210.7145, 3466.953
211.1967, 3142.625
211.6788, 2861.336
212.1609, 2618.898
212.6430, 2406.680
213.1251, 2243.066
213.6072, 2077.473
214.0894, 1871.789
214.5715, 1577.676
215.0536, 1334.359
215.5357, 1163.988
216.0178, 1046.055
216.4999, 904.6406
216.9820, 718.2891
217.4642, 543.0820
217.9463, 412.5938
218.4284, 338.9492
218.9105, 268.8438
219.3926, 194.8633
219.8747, 119.0977
220.3569, 54.56250
220.8390, 5.531250
221.3211, 37.82031
221.8032, 78.24219
222.2853, 105.0742
222.7674, 152.7852
223.2496, 238.6953
223.7317, 350.7344
224.2138, 406.1523
224.6959, 376.4766
225.1780, 324.7773
225.6601, 296.3984
226.1423, 311.4844
226.6244, 304.6641
227.1065, 263.9805
227.5886, 192.3906
228.0707, 126.9766
228.5528, 79.23047
229.0350, 25.72656
229.5171, 52.57812
229.9992, 173.2617
230.4813, 280.9609
230.9634, 354.6914
231.4455, 398.6055
231.9276, 496.1445
232.4098, 694.9102
232.8919, 895.8594
233.3740, 1003.547
233.8561, 960.2891
234.3382, 942.4375
234.8203, 990.4844
235.3025, 1103.242
235.7846, 1177.836
236.2667, 1212.898
236.7488, 1213.156
237.2309, 1180.781
237.7130, 1111.008
238.1952, 1018.789
238.6773, 896.8828
239.1594, 745.5703
239.6415, 619.8906
240.1236, 513.6484
240.6057, 439.1953
241.0879, 412.1797
241.5700, 447.8984
242.0521, 496.0938
242.5342, 551.6328
243.0163, 614.3359
243.4984, 665.9766
243.9806, 688.3281
244.4627, 713.8594
244.9448, 777.1016
245.4269, 901.9453
245.9090, 1013.453
246.3911, 1089.625
246.8732, 1126.703
247.3554, 1186.141
247.8375, 1280.648
248.3196, 1381.289
248.8017, 1458.727
249.2838, 1497.953
249.7659, 1542.742
250.2481, 1612.102
250.7302, 1710.133
251.2123, 1765.094
251.6944, 1755.789
252.1765, 1732.156
252.6586, 1752.711
253.1408, 1864.227
253.6229, 1932.695
254.1050, 1920.625
254.5871, 1826.781
255.0692, 1761.773
255.5513, 1724.336
256.0334, 1719.578
256.5156, 1760.406
256.9977, 1877.430
257.4798, 1972.344
257.9619, 2025.094
258.4440, 2034.711
258.9261, 2008.180
259.4083, 1916.047
259.8904, 1818.891
260.3725, 1784.812
260.8546, 1836.281
261.3367, 1891.391
261.8188, 1943.906
262.3010, 1992.289
262.7831, 1968.914
263.2652, 1831.828
263.7473, 1684.617
264.2294, 1636.406
264.7115, 1717.039
265.1937, 1770.867
265.6758, 1765.055
266.1579, 1711.641
266.6400, 1683.422
267.1221, 1676.391
267.6042, 1684.719
268.0864, 1710.508
268.5685, 1763.594
269.0506, 1800.883
269.5327, 1813.570
270.0148, 1806.914
270.4969, 1814.555
270.9791, 1843.633
271.4612, 1866.047
271.9433, 1854.969
272.4254, 1810.102
272.9075, 1755.273
273.3896, 1683.086
273.8718, 1599.742
274.3539, 1555.461
274.8360, 1567.305
275.3181, 1594.930
275.8002, 1595.352
276.2823, 1556.164
276.7645, 1515.320
277.2466, 1476.164
277.7287, 1449.023
278.2108, 1486.992
278.6929, 1600.727
279.1750, 1699.203
279.6572, 1702.805
280.1393, 1610.383
280.6214, 1493.594
281.1035, 1342.523
281.5856, 1178.820
282.0677, 1098.984
282.5499, 1113.547
283.0320, 1156.477
283.5141, 1190.445
283.9962, 1216.133
284.4783, 1200.359
284.9604, 1126.383
285.4425, 1016.141
285.9247, 925.2109
286.4068, 854.4609
286.8889, 798.4688
287.3710, 754.1875
287.8531, 724.5781
288.3352, 713.6797
288.8174, 725.2891
289.2995, 742.6719
289.7816, 732.6250
290.2637, 696.3672
290.7458, 649.5078
291.2279, 599.5859
291.7101, 545.9922
292.1922, 481.1719
292.6743, 392.7031
293.1564, 314.0938
293.6385, 326.6797
294.1206, 421.5938
294.6028, 496.1172
295.0849, 466.1172
295.5670, 367.2188
296.0491, 302.5078
296.5312, 295.8281
297.0133, 302.6094
297.4955, 232.8203
297.9776, 110.4609
298.4597, 45.50000
298.9418, 153.0391
299.4239, 354.3047
299.9060, 494.2500
300.3882, 546.0391
300.8703, 571.6797
301.3524, 622.6250
301.8345, 697.5312
302.3166, 795.5234
302.7987, 935.9688
303.2809, 1087.906
303.7630, 1211.883
304.2451, 1299.336
304.7272, 1367.203
305.2093, 1430.281
305.6914, 1482.812
306.1736, 1511.203
306.6557, 1506.250
307.1378, 1477.242
307.6199, 1421.016
308.1020, 1335.109
308.5841, 1271.750
309.0663, 1301.375
309.5484, 1377.109
310.0305, 1421.750
310.5126, 1404.734
310.9947, 1348.586
311.4768, 1253.680
311.9590, 1121.500
312.4411, 1000.609
312.9232, 945.4844
313.4053, 909.7031
313.8874, 839.7422
314.3695, 662.5938
314.8516, 493.1484
315.3337, 402.7109
315.8159, 385.4688
316.2980, 361.2031
316.7801, 285.9375
317.2622, 193.1797
317.7443, 111.9453
318.2264, 58.32031
318.7086, 12.23438
319.1907, 28.36719
319.6728, 64.21875
320.1549, 101.8281
320.6370, 181.9219
321.1191, 240.0469
321.6013, 232.5703
322.0834, 49.20312
322.5655, 70.28125
323.0476, 32.21094
323.5297, 116.1953
324.0118, 213.4531
324.4940, 207.0547
324.9761, 166.0703
325.4582, 119.6719
325.9403, 53.29688
326.4224, 10.46875
326.9045, 13.11719
327.3867, 41.83594
327.8688, 50.59375
328.3509, 7.679688
328.8330, 26.64062
329.3151, 29.92188
329.7972, 21.57031
330.2794, 43.68750
330.7615, 3.515625
331.2436, 55.04688
331.7257, 56.82812
332.2078, 57.36719
332.6899, 140.6250
333.1721, 133.8359
333.6542, 8.867188
334.1363, 36.46875
334.6184, 43.14844
335.1005, 156.1406
335.5826, 187.9531
336.0648, 94.93750
336.5469, 24.95312
337.0290, 20.05469
337.5111, 79.00000
337.9932, 114.4375
338.4753, 127.2969
338.9575, 119.8438
339.4396, 84.57812
339.9217, 12.93750
340.4038, 30.61719
340.8859, 24.25781
341.3680, 17.52344
341.8502, 29.67188
342.3323, 8.632813
342.8144, 26.38281
343.2965, 76.87500
343.7786, 143.3203
344.2607, 157.0078
344.7429, 93.31250
345.2250, 2.695313
345.7071, 37.02344
346.1892, 7.796875
346.6713, 51.85156
347.1534, 141.9062
347.6355, 249.9922
348.1176, 320.6328
348.5998, 338.2812
349.0819, 345.6172
349.5640, 408.5234
350.0461, 516.1328
350.5282, 614.3203
351.0103, 682.7969
351.4925, 719.1016
351.9746, 703.9766
352.4567, 627.8750
352.9388, 562.1172
353.4209, 591.0547
353.9030, 681.4844
354.3852, 762.7812
354.8673, 813.8594
355.3494, 839.4062
355.8315, 826.1328
356.3136, 776.9141
356.7957, 757.7266
357.2779, 851.3125
357.7600, 988.3125
358.2421, 1080.242
358.7242, 1084.742
359.2063, 1053.352
359.6884, 991.4609
360.1706, 909.0469
360.6527, 856.2500
361.1348, 843.5000
361.6169, 874.9375
362.0990, 957.7656
362.5811, 1131.617
363.0633, 1293.688
363.5454, 1422.273
364.0275, 1514.664
364.5096, 1565.672
364.9917, 1507.375
365.4738, 1459.922
365.9560, 1489.125
366.4381, 1654.898
366.9202, 1768.523
367.4023, 1746.906
367.8844, 1679.070
368.3665, 1697.195
368.8487, 1915.984
369.3308, 2115.195
369.8129, 2231.242
370.2950, 2244.461
370.7771, 2307.852
371.2592, 2454.062
371.7414, 2625.312
372.2235, 2768.242
372.7056, 2865.055
373.1877, 2960.828
373.6698, 3039.391
374.1519, 3109.984
374.6341, 3290.531
375.1162, 3627.945
375.5983, 3973.719
376.0804, 4214.008
376.5625, 4321.617
377.0446, 4446.656
377.5267, 4605.328
378.0089, 4789.109
378.4910, 4972.688
378.9731, 5158.930
379.4552, 5342.555
379.9373, 5529.016
380.4194, 5716.875
380.9016, 5884.375
381.3837, 6016.086
381.8658, 6161.680
382.3479, 6412.039
382.8300, 6756.805
383.3121, 7110.328
383.7943, 7430.641
384.2764, 7729.734
384.7585, 8031.641
385.2406, 8329.602
385.7227, 8654.484
386.2048, 9053.094
386.6870, 9489.219
387.1691, 9889.344
387.6512, 10176.39
388.1333, 10452.90
388.6154, 10857.69
389.0975, 11365.89
389.5797, 11851.95
390.0618, 12214.25
390.5439, 12513.78
391.0260, 12809.20
391.5081, 13128.38
391.9902, 13431.29
392.4724, 13708.25
392.9545, 13950.99
393.4366, 14152.31
393.9187, 14294.57
394.4008, 14421.52
394.8829, 14565.44
395.3651, 14738.52
395.8472, 14867.87
396.3293, 14946.09
396.8114, 14970.04
397.2935, 14935.94
397.7756, 14782.20
398.2578, 14632.27
398.7399, 14525.24
399.2220, 14460.25
399.7041, 14330.09
400.1862, 14116.53
400.6683, 13853.38
401.1505, 13555.37
401.6326, 13168.23
402.1147, 12840.38
402.5968, 12597.13
403.0789, 12412.70
403.5610, 12217.05
404.0432, 12025.20
404.5253, 11811.51
405.0074, 11536.33
405.4895, 11162.67
405.9716, 10921.07
406.4537, 10847.01
406.9359, 10847.59
407.4180, 10775.66
407.9001, 10621.31
408.3822, 10505.30
408.8643, 10490.37
409.3464, 10546.58
409.8285, 10528.78
410.3106, 10429.24
410.7928, 10327.73
411.2749, 10302.66
411.7570, 10339.16
412.2391, 10380.69
412.7212, 10416.22
413.2033, 10449.32
413.6855, 10482.42
414.1676, 10515.31
414.6497, 10550.54
415.1318, 10567.63
415.6139, 10594.87
416.0960, 10677.63
416.5782, 10834.30
417.0603, 10986.06
417.5424, 11084.82
418.0245, 11134.86
418.5066, 11143.97
418.9887, 11053.23
419.4709, 10975.31
419.9530, 10997.86
420.4351, 11122.91
420.9172, 11192.40
421.3993, 11100.20
421.8814, 10957.89
422.3636, 10854.87
422.8457, 10858.38
423.3278, 10849.18
423.8099, 10818.88
424.2920, 10765.95
424.7741, 10679.92
425.2563, 10541.09
425.7384, 10388.75
426.2205, 10237.05
426.7026, 10079.72
427.1847, 9937.883
427.6668, 9812.305
428.1490, 9700.406
428.6311, 9603.156
429.1132, 9530.188
429.5953, 9440.633
430.0774, 9325.172
430.5595, 9183.164
431.0417, 9006.383
431.5238, 8786.453
432.0059, 8559.047
432.4880, 8370.852
432.9701, 8219.445
433.4522, 8012.594
433.9344, 7722.078
434.4165, 7386.781
434.8986, 7051.617
435.3807, 6721.719
435.8628, 6442.367
436.3449, 6286.516
436.8271, 6192.164
437.3092, 6019.289
437.7913, 5751.992
438.2734, 5482.398
438.7555, 5302.984
439.2376, 5179.961
439.7197, 5052.586
440.2018, 4917.234
440.6840, 4750.805
441.1661, 4499.367
441.6482, 4181.852
442.1303, 3914.930
442.6124, 3803.242
443.0945, 3734.773
443.5767, 3624.023
444.0588, 3430.109
444.5409, 3238.156
445.0230, 3090.148
445.5051, 2957.875
445.9872, 2787.547
446.4694, 2499.008
446.9515, 2243.812
447.4336, 2076.891
447.9157, 2014.578
448.3978, 1944.344
448.8799, 1871.711
449.3621, 1787.867
449.8442, 1682.508
450.3263, 1542.547
450.8084, 1411.125
451.2905, 1283.812
451.7726, 1170.086
452.2548, 1114.797
452.7369, 1134.789
453.2190, 1147.297
453.7011, 1090.688
454.1832, 967.4219
454.6653, 898.7734
455.1475, 900.5859
455.6296, 913.3516
456.1117, 856.4219
456.5938, 739.7578
457.0759, 614.7188
457.5580, 489.8828
458.0402, 376.7734
458.5223, 305.6953
459.0044, 272.6328
459.4865, 235.1641
459.9686, 156.6562
460.4507, 58.80469
460.9329, 38.14062
461.4150, 140.6406
461.8971, 209.8516
462.3792, 195.1094
462.8613, 132.0078
463.3434, 86.83594
463.8256, 120.2109
464.3077, 148.1484
464.7898, 118.7812
465.2719, 22.56250
465.7540, 42.77344
466.2361, 14.50000
466.7183, 27.53125
467.2004, 22.15625
467.6825, 93.63281
468.1646, 178.0312
468.6467, 203.2812
469.1288, 191.8594
469.6109, 224.9297
470.0930, 354.1641
470.5752, 430.6328
471.0573, 359.7031
471.5394, 106.7031
472.0215, 15.38281
472.5036, 137.9688
472.9857, 308.5781
473.4679, 301.3125
473.9500, 115.4453
474.4321, 10.71875
474.9142, 95.68750
475.3963, 264.0703
475.8784, 243.2578
476.3606, 50.88281
476.8427, 120.4453
477.3248, 113.4688
477.8069, 2.867188
478.2890, 111.8984
478.7711, 203.0391
479.2533, 288.1250
479.7354, 375.7188
480.2175, 458.2578
480.6996, 524.3047
481.1817, 537.4297
481.6638, 561.2891
482.1460, 642.1797
482.6281, 770.2656
483.1102, 883.1094
483.5923, 886.5781
484.0744, 907.4766
484.5565, 1035.406
485.0387, 1387.492
485.5208, 1650.734
486.0029, 1733.438
486.4850, 1728.312
486.9671, 1775.820
487.4492, 1941.383
487.9314, 2058.289
488.4135, 2078.352
488.8956, 2008.562
489.3777, 1962.953
489.8598, 1951.258
490.3419, 1951.688
490.8241, 1951.070
491.3062, 1949.906
491.7883, 1941.812
492.2704, 1923.383
492.7525, 1913.328
493.2346, 1952.438
493.7168, 2031.797
494.1989, 2096.469
494.6810, 2106.070
495.1631, 2090.922
495.6452, 2113.102
496.1273, 2166.312
496.6095, 2199.508
497.0916, 2152.781
497.5737, 2076.656
498.0558, 2033.391
498.5379, 2053.445
499.0201, 2068.375
499.5022, 2048.891
499.9843, 1999.805
500.4664, 1930.352
500.9485, 1806.812
501.4306, 1710.742
501.9127, 1687.000
502.3948, 1739.320
502.8770, 1754.266
503.3591, 1698.875
503.8412, 1618.305
504.3233, 1541.391
504.8054, 1464.398
505.2875, 1398.711
505.7697, 1339.242
506.2518, 1289.047
506.7339, 1270.242
507.2160, 1297.383
507.6981, 1293.008
508.1802, 1208.234
508.6624, 1059.445
509.1445, 981.1250
509.6266, 982.1641
510.1087, 980.5547
510.5908, 879.7422
511.0729, 714.6172
511.5551, 594.7422
512.0372, 553.2188
512.5193, 541.7188
513.0014, 494.5156
513.4835, 432.3438
513.9656, 408.6797
514.4478, 502.3828
514.9299, 605.4688
515.4120, 623.7734
515.8941, 552.0859
516.3762, 499.3594
516.8583, 527.3281
517.3405, 581.2734
517.8226, 618.2109
518.3047, 610.7109
518.7868, 600.2656
519.2689, 570.0703
519.7510, 543.1484
520.2332, 574.2969
520.7153, 730.4062
521.1974, 833.4219
521.6795, 822.4062
522.1616, 700.2109
522.6437, 582.5234
523.1259, 465.2578
523.6080, 366.6172
524.0901, 296.3906
524.5722, 255.7891
525.0543, 278.3828
525.5364, 386.5156
526.0186, 511.2891
526.5007, 544.1875
526.9828, 499.3906
527.4649, 442.7812
527.9470, 390.4219
528.4291, 349.3828
528.9113, 340.0312
529.3934, 357.1172
529.8755, 357.2969
530.3576, 288.6172
530.8397, 205.3281
531.3218, 158.4141
531.8040, 176.9141
532.2861, 185.1562
532.7682, 147.7578
533.2503, 89.30469
533.7324, 44.02344
534.2145, 45.93750
534.6967, 31.00000
535.1788, 14.03125
535.6609, 84.46875
536.1430, 157.4219
536.6251, 248.6562
537.1072, 312.2891
537.5894, 313.5625
538.0715, 241.7422
538.5536, 179.4766
539.0357, 131.0469
539.5178, 92.43750
539.9999, 64.79688
540.4821, 46.77344
540.9642, 11.34375
541.4463, 60.60156
541.9284, 141.7969
542.4105, 176.5625
542.8926, 173.3828
543.3748, 182.1875
543.8569, 234.2266
544.3390, 309.8125
544.8211, 407.8984
545.3032, 537.6016
545.7853, 614.4453
546.2675, 563.6875
546.7495, 456.2031
547.2316, 359.3828
547.7137, 260.7422
548.1959, 208.0938
548.6780, 255.8984
549.1601, 358.2344
549.6422, 381.3828
550.1243, 264.6172
550.6064, 160.8438
551.0886, 123.0547
551.5707, 153.6094
552.0528, 151.4219
552.5349, 103.5938
553.0170, 58.82031
553.4991, 72.81250
553.9813, 139.9141
554.4634, 163.4219
554.9455, 118.3516
555.4276, 57.53125
555.9097, 60.89062
556.3918, 113.4609
556.8740, 166.6484
557.3561, 234.0547
557.8382, 269.3750
558.3203, 190.1797
558.8024, 19.39844
559.2845, 103.3906
559.7667, 93.64844
560.2488, 16.77344
560.7309, 92.73438
561.2130, 250.0938
561.6951, 369.4844
562.1772, 402.1484
562.6594, 400.4297
563.1415, 426.0703
563.6236, 509.1875
564.1057, 569.6328
564.5878, 594.5859
565.0699, 588.4766
565.5521, 565.6719
566.0342, 513.4531
566.5163, 490.3750
566.9984, 535.7734
567.4805, 640.1562
567.9626, 740.4844
568.4448, 841.2734
568.9269, 905.6406
569.4090, 871.2891
569.8911, 783.4297
570.3732, 735.2188
570.8553, 757.3359
571.3375, 791.1641
571.8196, 771.8594
572.3017, 727.5312
572.7838, 708.5391
573.2659, 804.9453
573.7480, 864.4141
574.2302, 762.2422
574.7123, 519.0781
575.1944, 400.4531
575.6765, 613.3203
576.1586, 824.6719
576.6407, 874.5625
577.1229, 694.9297
577.6050, 586.3359
578.0871, 574.3828
578.5692, 600.7500
579.0513, 589.3125
579.5334, 535.2344
580.0156, 522.8594
580.4977, 578.5156
580.9798, 671.5000
581.4619, 751.1953
581.9440, 816.6094
582.4261, 862.9531
582.9083, 864.5938
583.3904, 853.2656
583.8725, 875.5156
584.3546, 927.8281
584.8367, 977.2969
585.3188, 988.4297
585.8010, 997.7734
586.2831, 1043.266
586.7652, 1157.844
587.2473, 1248.781
587.7294, 1300.672
588.2115, 1312.625
588.6937, 1281.375
589.1758, 1163.547
589.6579, 1073.359
590.1400, 1046.016
590.6221, 1058.297
591.1042, 999.4766
591.5864, 837.7812
592.0685, 717.9453
592.5506, 733.6406
593.0327, 863.9062
593.5148, 956.0156
593.9969, 1013.195
594.4791, 1005.523
594.9612, 858.9375
595.4433, 642.9297
595.9254, 496.5469
596.4075, 457.6953
596.8896, 458.2812
597.3718, 469.1719
597.8539, 476.9375
598.3360, 459.4219
598.8181, 374.4375
599.3002, 301.8906
599.7823, 258.5938
600.2645, 244.2812
600.7466, 274.1016
601.2287, 412.4453
601.7108, 521.4375
602.1929, 523.1016
602.6750, 383.9141
603.1572, 397.1016
603.6393, 626.3359
604.1214, 865.8281
604.6035, 896.0078
605.0856, 726.6406
605.5677, 614.6562
606.0499, 610.3594
606.5320, 638.7109
607.0141, 573.7031
607.4962, 449.5234
607.9783, 365.0391
608.4604, 402.1953
608.9425, 463.8438
609.4246, 472.3359
609.9067, 435.5312
610.3889, 388.1719
610.8710, 319.3984
611.3531, 267.6406
611.8352, 263.5703
612.3173, 323.5859
612.7994, 349.3125
613.2816, 319.9453
613.7637, 275.4453
614.2458, 247.9766
614.7279, 247.6797
615.2100, 234.8750
615.6921, 206.6719
616.1743, 163.0859
616.6564, 92.78125
617.1385, 1.812500
617.6206, 78.84375
618.1027, 125.4219
618.5848, 140.3125
619.0670, 114.1719
619.5491, 56.67188
620.0312, 2.250000
620.5133, 48.72656
620.9954, 86.76562
621.4775, 105.7891
621.9597, 102.1094
622.4418, 136.9609
622.9239, 312.3984
623.4060, 478.4375
623.8881, 525.5312
624.3702, 336.3750
624.8524, 218.7188
625.3345, 215.6484
625.8166, 250.8281
626.2987, 206.9375
626.7808, 58.37500
627.2629, 36.03125
627.7451, 27.23438
628.2272, 39.99219
628.7093, 64.00781
629.1914, 47.92969
629.6735, 16.59375
