##NAMES=Stokesite
##RRUFFID=R060587
##IDEAL CHEMISTRY=CaSnSi_3_O_9_&#183;2H_2_O
##LOCALITY=Urucum mine, Galileia, Minas Gerais, Brazil
##OWNER=RRUFF
##SOURCE=Michael Scott
##DESCRIPTION=Spherical aggregate of colorless prismatic crystals
##STATUS=The identification of this mineral has been confirmed by single-crystal X-ray diffraction.
##URL=rruff.info/R060587
141.289, 0.000
141.771, 44.980
142.253, 72.444
142.735, 78.615
143.217, 61.705
143.699, 40.614
144.182, 45.995
144.664, 85.942
145.146, 65.777
145.628, 43.551
146.110, 21.990
146.592, 4.780
147.074, 2.803
147.556, 19.855
148.038, 43.576
148.521, 5.194
149.003, 32.308
149.485, 66.745
149.967, 102.902
150.449, 142.365
150.931, 192.573
151.413, 237.263
151.895, 267.608
152.378, 289.461
152.860, 327.238
153.342, 399.550
153.824, 476.908
154.306, 542.316
154.788, 578.450
155.270, 619.407
155.752, 674.388
156.234, 742.537
156.717, 808.749
157.199, 861.005
157.681, 913.899
158.163, 978.256
158.645, 1072.603
159.127, 1164.438
159.609, 1241.355
160.091, 1301.509
160.574, 1360.534
161.056, 1425.881
161.538, 1491.900
162.020, 1551.583
162.502, 1592.325
162.984, 1632.660
163.466, 1687.106
163.948, 1763.127
164.430, 1825.090
164.913, 1846.605
165.395, 1841.619
165.877, 1837.108
166.359, 1840.726
166.841, 1852.004
167.323, 1873.434
167.805, 1911.476
168.287, 1945.784
168.770, 1955.774
169.252, 1951.309
169.734, 1952.395
170.216, 1995.567
170.698, 2043.233
171.180, 2051.926
171.662, 1993.532
172.144, 1921.370
172.626, 1885.002
173.109, 1878.308
173.591, 1868.554
174.073, 1827.025
174.555, 1769.560
175.037, 1719.464
175.519, 1684.433
176.001, 1658.750
176.483, 1637.175
176.965, 1619.428
177.448, 1604.431
177.930, 1603.081
178.412, 1604.178
178.894, 1582.045
179.376, 1507.980
179.858, 1413.101
180.340, 1351.027
180.822, 1323.581
181.305, 1306.913
181.787, 1282.185
182.269, 1249.797
182.751, 1211.417
183.233, 1168.677
183.715, 1120.405
184.197, 1060.651
184.679, 986.102
185.161, 914.041
185.644, 872.532
186.126, 857.377
186.608, 832.785
187.090, 774.462
187.572, 691.398
188.054, 615.053
188.536, 546.803
189.018, 487.404
189.501, 440.665
189.983, 406.934
190.465, 379.601
190.947, 363.487
191.429, 355.081
191.911, 324.849
192.393, 264.359
192.875, 191.218
193.357, 137.279
193.840, 103.397
194.322, 81.612
194.804, 73.547
195.286, 78.575
195.768, 65.358
196.250, 20.855
196.732, 35.556
197.214, 48.622
197.697, 11.794
198.179, 36.313
198.661, 68.376
199.143, 72.008
199.625, 75.296
200.107, 78.641
200.589, 84.428
201.071, 101.589
201.553, 130.631
202.036, 170.227
202.518, 223.429
203.000, 293.007
203.482, 355.455
203.964, 401.087
204.446, 434.262
204.928, 489.039
205.410, 569.045
205.893, 658.733
206.375, 743.031
206.857, 815.763
207.339, 901.177
207.821, 1007.615
208.303, 1133.639
208.785, 1252.950
209.267, 1359.550
209.749, 1470.071
210.232, 1605.489
210.714, 1773.819
211.196, 1940.643
211.678, 2085.987
212.160, 2208.082
212.642, 2398.797
213.124, 2686.039
213.606, 3008.488
214.089, 3282.565
214.571, 3491.832
215.053, 3703.259
215.535, 3933.336
216.017, 4182.373
216.499, 4457.776
216.981, 4763.486
217.463, 5093.530
217.945, 5440.624
218.428, 5792.641
218.910, 6173.322
219.392, 6585.455
219.874, 7031.543
220.356, 7505.937
220.838, 8006.427
221.320, 8533.187
221.802, 9074.550
222.285, 9616.152
222.767, 10197.896
223.249, 10832.457
223.731, 11540.208
224.213, 12241.939
224.695, 12921.450
225.177, 13608.295
225.659, 14377.209
226.141, 15243.969
226.624, 16159.885
227.106, 17115.877
227.588, 18128.441
228.070, 19137.664
228.552, 20204.738
229.034, 21239.781
229.516, 22017.293
229.998, 22482.459
230.480, 22774.500
230.963, 22949.682
231.445, 23029.248
231.927, 22943.959
232.409, 22679.111
232.891, 22251.652
233.373, 21687.574
233.855, 20945.312
234.337, 20131.738
234.820, 19279.740
235.302, 18346.311
235.784, 17444.236
236.266, 16566.859
236.748, 15726.388
237.230, 14954.028
237.712, 14257.204
238.194, 13603.221
238.676, 12981.157
239.159, 12376.325
239.641, 11830.020
240.123, 11347.063
240.605, 10921.092
241.087, 10536.869
241.569, 10192.141
242.051, 9885.329
242.533, 9620.319
243.016, 9405.532
243.498, 9216.185
243.980, 9064.243
244.462, 8933.138
244.944, 8770.107
245.426, 8553.568
245.908, 8336.084
246.390, 8147.524
246.872, 8001.423
247.355, 7846.605
247.837, 7680.884
248.319, 7506.308
248.801, 7330.957
249.283, 7149.088
249.765, 6974.373
250.247, 6810.826
250.729, 6652.407
251.212, 6525.542
251.694, 6447.396
252.176, 6401.509
252.658, 6327.763
253.140, 6206.140
253.622, 6087.894
254.104, 6001.018
254.586, 5966.200
255.068, 5914.535
255.551, 5842.738
256.033, 5753.587
256.515, 5655.559
256.997, 5541.774
257.479, 5430.438
257.961, 5330.230
258.443, 5242.513
258.925, 5160.689
259.408, 5079.208
259.890, 5002.841
260.372, 4948.156
260.854, 4925.938
261.336, 4905.334
261.818, 4865.670
262.300, 4795.094
262.782, 4743.337
263.264, 4719.790
263.746, 4714.176
264.229, 4696.480
264.711, 4665.215
265.193, 4624.128
265.675, 4575.723
266.157, 4522.774
266.639, 4454.133
267.121, 4372.531
267.603, 4273.924
268.086, 4139.439
268.568, 3959.850
269.050, 3771.603
269.532, 3595.590
270.014, 3434.923
270.496, 3276.133
270.978, 3126.213
271.460, 2976.469
271.943, 2798.407
272.425, 2583.101
272.907, 2372.285
273.389, 2187.119
273.871, 2031.971
274.353, 1878.936
274.835, 1726.418
275.317, 1578.443
275.799, 1444.177
276.282, 1326.371
276.764, 1213.719
277.246, 1097.900
277.728, 978.217
278.210, 871.442
278.692, 780.667
279.174, 702.935
279.656, 637.240
280.138, 585.446
280.621, 532.116
281.103, 461.976
281.585, 375.199
282.067, 317.149
282.549, 295.156
283.031, 291.684
283.513, 278.759
283.995, 256.191
284.478, 227.397
284.960, 190.576
285.442, 146.935
285.924, 109.410
286.406, 78.386
286.888, 53.114
287.370, 36.397
287.852, 28.059
288.335, 12.082
288.817, 28.754
289.299, 86.267
289.781, 119.059
290.263, 123.162
290.745, 114.296
291.227, 111.119
291.709, 112.761
292.191, 111.768
292.674, 97.729
293.156, 78.193
293.638, 79.505
294.120, 103.476
294.602, 69.313
295.084, 37.605
295.566, 10.660
296.048, 12.327
296.530, 33.573
297.013, 50.910
297.495, 57.450
297.977, 52.743
298.459, 45.057
298.941, 38.702
299.423, 35.092
299.905, 38.952
300.387, 61.779
300.870, 88.000
301.352, 91.624
301.834, 72.875
302.316, 51.979
302.798, 48.630
303.280, 55.221
303.762, 57.453
304.244, 48.061
304.727, 34.046
305.209, 22.555
305.691, 13.548
306.173, 5.481
306.655, 4.559
307.137, 13.697
307.619, 17.495
308.101, 10.291
308.583, 2.089
309.065, 1.150
309.548, 6.683
310.030, 14.625
310.512, 24.492
310.994, 34.843
311.476, 23.642
311.958, 12.361
312.440, 2.179
312.922, 6.609
313.405, 14.330
313.887, 22.076
314.369, 30.937
314.851, 39.713
315.333, 46.762
315.815, 48.741
316.297, 54.908
316.779, 70.645
317.262, 93.524
317.744, 118.233
318.226, 147.234
318.708, 174.196
319.190, 195.064
319.672, 206.579
320.154, 219.005
320.636, 232.084
321.118, 248.378
321.601, 272.303
322.083, 305.208
322.565, 345.877
323.047, 370.555
323.529, 377.669
324.011, 417.928
324.493, 450.143
324.975, 474.852
325.457, 469.780
325.940, 504.435
326.422, 523.452
326.904, 541.604
327.386, 582.005
327.868, 583.219
328.350, 623.621
328.832, 648.010
329.314, 680.158
329.797, 695.769
330.279, 715.326
330.761, 750.251
331.243, 776.123
331.725, 788.035
332.207, 817.819
332.689, 822.390
333.171, 831.551
333.654, 784.662
334.136, 743.351
334.618, 714.745
335.100, 698.188
335.582, 691.414
336.064, 704.646
336.546, 710.586
337.028, 685.446
337.510, 615.431
337.992, 565.443
338.475, 540.064
338.957, 512.472
339.439, 518.549
339.921, 516.359
340.403, 506.341
340.885, 465.283
341.367, 464.131
341.849, 446.878
342.332, 428.891
342.814, 433.138
343.296, 396.200
343.778, 397.751
344.260, 407.225
344.742, 403.938
345.224, 349.915
345.706, 361.232
346.189, 346.254
346.671, 328.551
347.153, 343.636
347.635, 289.257
348.117, 301.046
348.599, 286.694
349.081, 266.229
349.563, 258.323
350.045, 251.709
350.528, 244.023
351.010, 222.140
351.492, 195.034
351.974, 188.006
352.456, 225.642
352.938, 277.100
353.420, 305.251
353.902, 311.057
354.384, 303.664
354.867, 273.560
355.349, 240.568
355.831, 233.397
356.313, 272.009
356.795, 317.262
357.277, 335.562
357.759, 334.511
358.241, 337.000
358.724, 365.107
359.206, 397.579
359.688, 412.744
360.170, 407.184
360.652, 440.032
361.134, 463.187
361.616, 477.427
362.098, 457.207
362.581, 483.140
363.063, 491.404
363.545, 499.086
364.027, 532.064
364.509, 518.471
364.991, 548.508
365.473, 606.087
365.955, 645.565
366.437, 654.631
366.919, 651.246
367.402, 634.039
367.884, 602.199
368.366, 579.186
368.848, 572.322
369.330, 572.123
369.812, 572.193
370.294, 585.575
370.776, 579.431
371.259, 539.536
371.741, 474.796
372.223, 434.957
372.705, 436.215
373.187, 440.183
373.669, 423.182
374.151, 370.034
374.633, 339.420
375.116, 294.513
375.598, 302.851
376.080, 298.607
376.562, 282.366
377.044, 217.619
377.526, 215.581
378.008, 188.410
378.490, 160.209
378.973, 153.177
379.455, 130.057
379.937, 98.709
380.419, 59.523
380.901, 28.485
381.383, 14.028
381.865, 11.330
382.347, 4.678
382.829, 6.070
383.311, 16.316
383.794, 18.361
384.276, 15.997
384.758, 23.594
385.240, 39.742
385.722, 10.637
386.204, 11.309
386.686, 37.404
387.168, 29.614
387.651, 16.081
388.133, 10.649
388.615, 7.095
389.097, 4.953
389.579, 3.161
390.061, 2.500
390.543, 1.658
391.025, 2.238
391.508, 10.511
391.990, 22.215
392.472, 38.820
392.954, 61.267
393.436, 79.823
393.918, 84.310
394.400, 85.168
394.882, 93.565
395.364, 127.382
395.847, 154.152
396.329, 157.249
396.811, 139.709
397.293, 136.767
397.775, 166.939
398.257, 205.097
398.739, 236.547
399.221, 259.448
399.703, 276.499
400.186, 274.144
400.668, 266.140
401.150, 288.420
401.632, 323.604
402.114, 375.118
402.596, 422.629
403.078, 466.148
403.560, 494.713
404.043, 542.535
404.525, 582.532
405.007, 622.295
405.489, 672.677
405.971, 705.843
406.453, 760.919
406.935, 810.676
407.417, 865.064
407.900, 909.955
408.382, 947.406
408.864, 996.772
409.346, 1056.769
409.828, 1094.115
410.310, 1133.359
410.792, 1196.924
411.274, 1254.860
411.756, 1308.378
412.238, 1340.567
412.721, 1389.234
413.203, 1451.478
413.685, 1504.293
414.167, 1547.700
414.649, 1569.132
415.131, 1608.875
415.613, 1635.357
416.095, 1657.135
416.578, 1687.120
417.060, 1689.519
417.542, 1710.706
418.024, 1718.451
418.506, 1726.171
418.988, 1720.589
419.470, 1713.711
419.952, 1711.925
420.435, 1699.839
420.917, 1674.718
421.399, 1655.564
421.881, 1613.222
422.363, 1581.535
422.845, 1550.162
423.327, 1493.786
423.809, 1442.067
424.291, 1415.015
424.774, 1385.854
425.256, 1356.554
425.738, 1323.365
426.220, 1279.824
426.702, 1212.017
427.184, 1155.644
427.666, 1123.474
428.148, 1115.022
428.630, 1086.816
429.113, 1030.374
429.595, 968.563
430.077, 919.410
430.559, 884.822
431.041, 854.297
431.523, 827.262
432.005, 802.531
432.487, 777.412
432.970, 751.910
433.452, 725.625
433.934, 697.408
434.416, 668.141
434.898, 641.352
435.380, 617.335
435.862, 593.556
436.344, 566.744
436.827, 537.707
437.309, 508.369
437.791, 471.898
438.273, 441.258
438.755, 437.979
439.237, 458.512
439.719, 477.342
440.201, 476.961
440.683, 465.805
441.165, 451.839
441.648, 434.085
442.130, 421.274
442.612, 421.879
443.094, 428.844
443.576, 431.636
444.058, 421.859
444.540, 408.955
445.022, 396.723
445.505, 384.680
445.987, 378.844
446.469, 381.539
446.951, 389.765
447.433, 402.078
447.915, 409.216
448.397, 420.670
448.879, 431.331
449.362, 441.219
449.844, 447.353
450.326, 458.595
450.808, 467.819
451.290, 476.959
451.772, 488.911
452.254, 495.682
452.736, 507.591
453.218, 517.453
453.701, 528.257
454.183, 536.608
454.665, 556.760
455.147, 548.407
455.629, 522.419
456.111, 518.662
456.593, 537.626
457.075, 550.216
457.557, 528.434
458.040, 482.154
458.522, 433.817
459.004, 386.886
459.486, 339.806
459.968, 289.501
460.450, 237.296
460.932, 187.935
461.414, 145.156
461.897, 104.638
462.379, 61.804
462.861, 15.794
463.343, 27.024
463.825, 63.270
464.307, 95.711
464.789, 86.066
465.271, 54.194
465.754, 27.237
466.236, 5.763
466.718, 9.873
467.200, 18.431
467.682, 10.422
468.164, 4.087
468.646, 7.363
469.128, 25.738
469.610, 36.388
470.093, 37.673
470.575, 32.789
471.057, 24.143
471.539, 9.588
472.021, 0.037
472.503, 0.161
472.985, 6.874
473.467, 4.388
473.949, 7.931
474.432, 23.940
474.914, 39.402
475.396, 54.824
475.878, 73.240
476.360, 95.659
476.842, 118.885
477.324, 139.737
477.806, 133.413
478.289, 121.493
478.771, 119.746
479.253, 116.747
479.735, 95.280
480.217, 57.295
480.699, 25.909
481.181, 23.062
481.663, 28.940
482.146, 25.852
482.628, 8.289
483.110, 15.388
483.592, 44.397
484.074, 77.457
484.556, 111.541
485.038, 154.085
485.520, 189.823
486.002, 211.687
486.484, 217.844
486.967, 227.755
487.449, 242.699
487.931, 260.035
488.413, 276.294
488.895, 287.412
489.377, 310.792
489.859, 351.437
490.341, 401.992
490.824, 444.423
491.306, 477.598
491.788, 509.400
492.270, 542.693
492.752, 577.517
493.234, 611.388
493.716, 643.125
494.198, 680.175
494.681, 732.119
495.163, 794.759
495.645, 856.391
496.127, 915.841
496.609, 971.385
497.091, 1015.891
497.573, 1054.070
498.055, 1100.609
498.537, 1169.647
499.020, 1244.139
499.502, 1311.432
499.984, 1368.214
500.466, 1431.985
500.948, 1523.725
501.430, 1617.072
501.912, 1690.382
502.394, 1712.415
502.876, 1745.552
503.359, 1805.390
503.841, 1883.013
504.323, 1949.148
504.805, 2000.980
505.287, 2046.414
505.769, 2088.466
506.251, 2126.999
506.733, 2161.949
507.216, 2193.167
507.698, 2221.458
508.180, 2243.724
508.662, 2259.849
509.144, 2289.677
509.626, 2340.052
510.108, 2402.954
510.590, 2463.243
511.073, 2521.068
511.555, 2577.170
512.037, 2617.036
512.519, 2661.462
513.001, 2744.077
513.483, 2868.324
513.965, 3009.621
514.447, 3161.121
514.929, 3315.696
515.412, 3464.645
515.894, 3602.962
516.376, 3738.390
516.858, 3872.235
517.340, 4004.646
517.822, 4134.519
518.304, 4270.013
518.786, 4395.138
519.268, 4501.889
519.751, 4586.025
520.233, 4667.964
520.715, 4746.716
521.197, 4821.491
521.679, 4898.376
522.161, 4985.961
522.643, 5047.187
523.125, 5067.001
523.607, 5119.859
524.090, 5164.747
524.572, 5201.986
525.054, 5208.584
525.536, 5254.654
526.018, 5285.171
526.500, 5315.043
526.982, 5365.732
527.464, 5375.584
527.947, 5425.180
528.429, 5459.204
528.911, 5501.053
529.393, 5528.078
529.875, 5560.203
530.357, 5608.114
530.839, 5647.258
531.321, 5672.782
531.804, 5716.502
532.286, 5728.118
532.768, 5768.030
533.250, 5820.117
533.732, 5846.719
534.214, 5890.787
534.696, 5911.713
535.178, 5970.240
535.661, 6033.060
536.143, 6110.344
536.625, 6207.362
537.107, 6314.259
537.589, 6416.456
538.071, 6514.368
538.553, 6607.327
539.035, 6685.743
539.517, 6757.977
540.000, 6867.493
540.482, 7015.529
540.964, 7188.285
541.446, 7392.951
541.928, 7613.445
542.410, 7799.549
542.892, 7936.763
543.374, 8074.257
543.856, 8261.113
544.339, 8479.943
544.821, 8704.895
545.303, 8926.094
545.785, 9148.875
546.267, 9374.581
546.749, 9603.903
547.231, 9845.747
547.713, 10106.174
548.195, 10376.586
548.678, 10656.936
549.160, 10952.686
549.642, 11241.910
550.124, 11508.939
550.606, 11784.082
551.088, 12108.135
551.570, 12502.549
552.052, 12871.033
552.534, 13186.979
553.017, 13471.547
553.499, 13785.147
553.981, 14127.209
554.463, 14463.053
554.945, 14783.076
555.427, 15084.133
555.909, 15346.689
556.391, 15571.604
556.874, 15781.907
557.356, 16003.694
557.838, 16220.871
558.320, 16408.393
558.802, 16546.467
559.284, 16680.537
559.766, 16901.795
560.248, 17127.242
560.731, 17207.246
561.213, 17005.201
561.695, 16741.662
562.177, 16482.553
562.659, 16228.114
563.141, 15934.212
563.623, 15574.112
564.105, 15199.556
564.588, 14843.895
565.070, 14524.409
565.552, 14149.497
566.034, 13713.710
566.516, 13238.642
566.998, 12745.467
567.480, 12236.798
567.962, 11728.236
568.444, 11220.269
568.927, 10719.055
569.409, 10252.907
569.891, 9813.567
570.373, 9380.398
570.855, 8921.040
571.337, 8470.388
571.819, 8052.229
572.301, 7672.412
572.783, 7308.845
573.266, 6956.588
573.748, 6615.311
574.230, 6290.187
574.712, 5979.236
575.194, 5681.356
575.676, 5400.878
576.158, 5133.274
576.640, 4876.513
577.122, 4644.567
577.605, 4409.798
578.087, 4160.865
578.569, 3904.135
579.051, 3679.677
579.533, 3495.460
580.015, 3324.146
580.497, 3149.497
580.979, 2971.888
581.461, 2802.720
581.944, 2642.404
582.426, 2492.066
582.908, 2356.509
583.390, 2230.627
583.872, 2098.110
584.354, 1943.996
584.836, 1796.906
585.318, 1679.530
585.801, 1585.637
586.283, 1498.432
586.765, 1416.123
587.247, 1336.233
587.729, 1254.844
588.211, 1171.165
588.693, 1098.464
589.175, 1042.292
589.657, 992.008
590.140, 943.441
590.622, 901.032
591.104, 843.373
591.586, 762.576
592.068, 678.482
592.550, 620.389
593.032, 587.833
593.515, 561.752
593.997, 540.143
594.479, 517.874
594.961, 484.070
595.443, 440.751
595.925, 397.792
596.407, 356.442
596.889, 321.091
597.371, 296.293
597.854, 282.281
598.336, 273.030
598.818, 282.700
599.300, 285.731
599.782, 260.385
600.264, 169.820
600.746, 107.787
601.228, 96.566
601.710, 108.405
602.193, 105.390
602.675, 81.412
603.157, 56.511
603.639, 32.934
604.121, 12.012
604.603, 0.424
605.085, 1.171
605.567, 1.617
606.049, 2.551
606.532, 6.484
607.014, 23.745
607.496, 54.622
607.978, 81.492
608.460, 81.822
608.942, 73.193
609.424, 79.756
609.906, 74.078
610.388, 43.174
610.871, 56.434
611.353, 86.876
611.835, 76.939
612.317, 52.970
612.799, 18.709
613.281, 6.898
613.763, 12.777
614.245, 17.411
614.728, 22.181
615.210, 22.319
615.692, 11.980
616.174, 7.143
616.656, 10.045
617.138, 4.894
617.620, 23.791
618.102, 29.274
618.584, 29.791
619.067, 10.460
619.549, 30.721
620.031, 41.378
620.513, 42.954
620.995, 8.209
621.477, 20.381
621.959, 13.742
622.442, 6.326
622.924, 14.725
623.406, 11.539
623.888, 6.063
624.370, 10.312
624.852, 22.547
625.334, 24.422
625.816, 15.967
626.298, 15.453
626.781, 26.363
627.263, 35.171
627.745, 29.808
628.227, 12.039
628.709, 2.467
629.191, 13.114
629.673, 18.628
630.155, 14.134
630.638, 3.865
631.120, 3.538
631.602, 4.602
632.084, 3.121
632.566, 8.021
633.048, 12.101
633.530, 1.074
634.012, 44.301
634.494, 96.574
634.977, 116.899
635.459, 106.834
635.941, 104.579
636.423, 111.732
636.905, 124.506
637.387, 140.492
637.869, 159.221
638.351, 190.620
638.833, 238.527
639.316, 281.647
639.798, 289.369
640.280, 272.950
640.762, 274.054
641.244, 301.812
641.726, 342.742
642.208, 389.773
642.690, 439.579
643.172, 487.115
643.655, 529.515
644.137, 570.269
644.619, 615.265
645.101, 661.006
645.583, 695.189
646.065, 692.630
646.547, 703.677
647.029, 747.018
647.511, 823.025
647.994, 884.846
648.476, 924.840
648.958, 971.503
649.440, 1051.748
649.922, 1161.116
650.404, 1246.983
650.886, 1303.790
651.369, 1354.797
651.851, 1423.953
652.333, 1503.854
652.815, 1580.177
653.297, 1646.028
653.779, 1713.911
654.261, 1790.564
654.743, 1874.985
655.225, 1964.243
655.708, 2066.146
656.190, 2163.211
656.672, 2249.273
657.154, 2326.803
657.636, 2411.526
658.118, 2510.327
658.600, 2602.034
659.082, 2678.872
659.565, 2741.514
