##NAMES=Swedenborgite
##RRUFFID=R060486
##IDEAL CHEMISTRY=NaBe_4_Sb^5+^O_7_
##LOCALITY=Langban, Filipstad, Varmland, Sweden
##OWNER=RRUFF
##SOURCE=Michael Scott
##DESCRIPTION=Colorless glassy fragment in center of the photo
##STATUS=The identification of this mineral is confirmed by single-crystal X-ray diffraction and chemical analysis.
##URL=rruff.info/R060486
##MEASURED CHEMISTRY=(Na_0.94_Ca_0.03_[box]_0.03_)_Î£=1_Be_4.00_Sb^5+^_1.00_O_7_; trace amounts of As; Be estimated by difference
86.809, 0.000
87.291, 0.804
87.774, 5.952
88.256, 19.428
88.738, 35.136
89.220, 53.008
89.702, 70.706
90.184, 84.433
90.666, 96.081
91.148, 116.438
91.631, 148.225
92.113, 176.219
92.595, 201.887
93.077, 230.697
93.559, 247.559
94.041, 244.930
94.523, 231.967
95.005, 240.918
95.487, 309.074
95.970, 386.659
96.452, 394.245
96.934, 359.941
97.416, 315.293
97.898, 258.459
98.380, 187.941
98.862, 128.665
99.344, 95.069
99.826, 88.812
100.309, 78.806
100.791, 63.979
101.273, 45.927
101.755, 29.287
102.237, 15.356
102.719, 0.447
103.201, 23.741
103.683, 62.706
104.165, 86.779
104.648, 94.649
105.130, 85.723
105.612, 54.791
106.094, 13.271
106.576, 90.735
107.058, 153.956
107.540, 186.786
108.022, 226.775
108.505, 281.755
108.987, 353.168
109.469, 429.212
109.951, 508.525
110.433, 591.522
110.915, 680.193
111.397, 763.211
111.879, 860.125
112.362, 976.228
112.844, 1103.764
113.326, 1265.948
113.808, 1502.058
114.290, 1778.689
114.772, 2013.339
115.254, 2221.660
115.736, 2359.597
116.218, 2396.523
116.701, 2234.280
117.183, 2077.636
117.665, 2002.431
118.147, 1999.378
118.629, 2014.622
119.111, 2030.159
119.593, 2048.753
120.075, 2072.696
120.558, 2103.622
121.040, 2139.699
121.522, 2185.467
122.004, 2241.490
122.486, 2287.238
122.968, 2318.179
123.450, 2328.312
123.932, 2306.585
124.414, 2225.333
124.897, 2117.702
125.379, 2017.378
125.861, 1923.955
126.343, 1854.362
126.825, 1833.130
127.307, 1854.456
127.789, 1893.786
128.271, 1944.115
128.753, 2001.029
129.236, 2051.603
129.718, 2089.822
130.200, 2126.542
130.682, 2193.948
131.164, 2290.969
131.646, 2369.417
132.128, 2358.028
132.610, 2273.647
133.093, 2249.398
133.575, 2333.681
134.057, 2498.076
134.539, 2646.931
135.021, 2779.781
135.503, 2898.927
135.985, 2993.430
136.467, 3059.642
136.949, 3150.800
137.432, 3287.763
137.914, 3470.783
138.396, 3658.573
138.878, 3851.561
139.360, 4045.347
139.842, 4229.483
140.324, 4397.140
140.806, 4571.868
141.288, 4755.118
141.771, 4935.800
142.253, 5167.686
142.735, 5438.221
143.217, 5764.149
143.699, 6183.858
144.181, 6725.259
144.663, 7329.000
145.145, 7983.511
145.628, 8724.144
146.110, 9436.605
146.592, 10089.149
147.074, 10697.723
147.556, 11337.449
148.038, 11959.938
148.520, 12660.688
149.002, 13490.249
149.484, 14461.702
149.967, 15565.139
150.449, 16874.463
150.931, 18427.277
151.413, 19802.201
151.895, 21241.480
152.377, 22404.529
152.859, 22960.389
153.342, 22780.887
153.824, 22125.885
154.306, 20948.975
154.788, 19143.596
155.270, 17344.111
155.752, 15509.592
156.234, 13741.067
156.716, 12154.374
157.198, 10806.590
157.680, 9631.614
158.163, 8629.571
158.645, 7824.150
159.127, 7122.533
159.609, 6521.829
160.091, 6007.059
160.573, 5546.948
161.055, 5122.543
161.538, 4756.934
162.020, 4477.308
162.502, 4329.976
162.984, 4202.503
163.466, 4037.331
163.948, 3853.605
164.430, 3706.203
164.912, 3640.718
165.394, 3614.198
165.876, 3592.147
166.359, 3559.967
166.841, 3535.918
167.323, 3539.708
167.805, 3566.779
168.287, 3585.632
168.769, 3554.827
169.251, 3512.318
169.733, 3501.999
170.216, 3562.830
170.698, 3646.551
171.180, 3708.192
171.662, 3748.958
172.144, 3809.038
172.626, 3921.122
173.108, 4072.330
173.590, 4243.008
174.072, 4452.103
174.555, 4662.919
175.037, 4847.043
175.519, 5005.429
176.001, 5119.831
176.483, 5152.942
176.965, 5122.438
177.447, 5073.892
177.929, 5063.740
178.412, 5041.564
178.894, 4912.959
179.376, 4657.112
179.858, 4358.275
180.340, 4087.128
180.822, 3847.540
181.304, 3650.732
181.786, 3538.109
182.268, 3472.269
182.751, 3365.402
183.233, 3200.855
183.715, 3007.823
184.197, 2824.807
184.679, 2650.598
185.161, 2488.238
185.643, 2345.834
186.125, 2217.844
186.607, 2070.571
187.090, 1888.380
187.572, 1702.840
188.054, 1572.579
188.536, 1498.330
189.018, 1451.279
189.500, 1415.246
189.982, 1389.901
190.464, 1372.119
190.947, 1364.964
191.429, 1361.179
191.911, 1339.495
192.393, 1299.934
192.875, 1258.939
193.357, 1231.507
193.839, 1217.237
194.321, 1201.558
194.803, 1182.528
195.286, 1159.405
195.768, 1116.138
196.250, 1043.208
196.732, 993.466
197.214, 1046.448
197.696, 1211.307
198.178, 1338.879
198.661, 1385.410
199.143, 1357.862
199.625, 1303.969
200.107, 1213.514
200.589, 1122.270
201.071, 1076.760
201.553, 1082.183
202.035, 1097.871
202.517, 1108.172
202.999, 1113.334
203.482, 1146.204
203.964, 1216.024
204.446, 1296.895
204.928, 1347.209
205.410, 1358.328
205.892, 1374.863
206.374, 1410.852
206.857, 1466.658
207.339, 1538.845
207.821, 1630.964
208.303, 1734.762
208.785, 1830.646
209.267, 1908.029
209.749, 2012.054
210.231, 2182.786
210.713, 2450.531
211.195, 2632.216
211.678, 2738.497
212.160, 2751.096
212.642, 2610.900
213.124, 2268.239
213.606, 1896.500
214.088, 1566.133
214.570, 1269.800
215.052, 1033.851
215.535, 865.213
216.017, 751.161
216.499, 666.063
216.981, 617.798
217.463, 580.711
217.945, 541.943
218.427, 499.268
218.909, 461.916
219.391, 430.333
219.874, 403.994
220.356, 383.500
220.838, 374.077
221.320, 361.248
221.802, 335.270
222.284, 288.545
222.766, 249.899
223.248, 223.377
223.731, 206.272
224.213, 187.264
224.695, 162.295
225.177, 142.042
225.659, 135.878
226.141, 157.505
226.623, 160.137
227.105, 131.477
227.587, 80.184
228.070, 48.251
228.552, 40.846
229.034, 45.673
229.516, 54.583
229.998, 63.927
230.480, 87.587
230.962, 143.972
231.444, 220.245
231.926, 232.299
232.409, 141.938
232.891, 35.097
233.373, 30.979
233.855, 38.527
234.337, 39.475
234.819, 33.593
235.301, 23.025
235.783, 30.181
236.266, 68.859
236.748, 108.390
237.230, 126.133
237.712, 110.099
238.194, 95.282
238.676, 84.033
239.158, 76.619
239.640, 79.121
240.122, 99.511
240.605, 120.310
241.087, 127.553
241.569, 112.544
242.051, 100.898
242.533, 99.740
243.015, 107.388
243.497, 99.033
243.980, 60.466
244.462, 22.226
244.944, 10.540
245.426, 43.043
245.908, 67.586
246.390, 75.346
246.872, 67.728
247.354, 63.041
247.836, 67.992
248.318, 68.853
248.801, 52.468
249.283, 6.954
249.765, 30.744
250.247, 55.533
250.729, 67.459
251.211, 71.608
251.693, 66.460
252.176, 55.795
252.658, 40.945
253.140, 15.989
253.622, 1.510
254.104, 4.118
254.586, 22.458
255.068, 34.900
255.550, 35.410
256.032, 38.253
256.514, 56.393
256.997, 96.840
257.479, 136.875
257.961, 175.335
258.443, 211.980
258.925, 237.144
259.407, 245.570
259.889, 250.719
260.371, 264.432
260.854, 290.512
261.336, 313.991
261.818, 330.530
262.300, 341.259
262.782, 354.310
263.264, 352.989
263.746, 381.720
264.228, 500.625
264.711, 768.758
265.193, 935.806
265.675, 933.335
266.157, 788.242
266.639, 707.969
267.121, 710.615
267.603, 744.739
268.085, 770.640
268.567, 782.860
269.050, 808.192
269.532, 851.543
270.014, 911.068
270.496, 981.947
270.978, 1067.614
271.460, 1153.018
271.942, 1224.393
272.424, 1276.987
272.906, 1339.698
273.389, 1418.637
273.871, 1511.317
274.353, 1608.739
274.835, 1709.693
275.317, 1815.445
275.799, 1932.283
276.281, 2062.199
276.763, 2179.253
277.246, 2277.264
277.728, 2360.450
278.210, 2445.714
278.692, 2533.955
279.174, 2618.841
279.656, 2699.483
280.138, 2776.072
280.620, 2838.218
281.103, 2884.060
281.585, 2914.657
282.067, 2931.800
282.549, 2934.841
283.031, 2928.246
283.513, 2913.126
283.995, 2889.765
284.477, 2866.389
284.959, 2847.439
285.441, 2824.664
285.924, 2775.126
286.406, 2697.754
286.888, 2618.638
287.370, 2550.768
287.852, 2494.592
288.334, 2453.153
288.816, 2423.760
289.298, 2415.063
289.781, 2443.781
290.263, 2509.396
290.745, 2600.045
291.227, 2703.099
291.709, 2823.920
292.191, 2982.550
292.673, 3191.551
293.155, 3412.987
293.638, 3601.188
294.120, 3752.027
294.602, 3861.131
295.084, 3922.007
295.566, 3942.226
296.048, 3925.832
296.530, 3863.783
297.012, 3803.970
297.494, 3816.101
297.977, 3885.372
298.459, 3953.591
298.941, 3990.201
299.423, 4009.451
299.905, 4035.518
300.387, 4072.016
300.869, 4099.012
301.351, 4083.469
301.833, 4043.425
302.316, 4023.938
302.798, 4045.804
303.280, 4092.740
303.762, 4131.557
304.244, 4157.479
304.726, 4241.735
305.208, 4438.748
305.690, 4735.762
306.173, 5114.375
306.655, 5577.142
307.137, 6112.479
307.619, 6741.091
308.101, 7458.527
308.583, 8147.747
309.065, 8653.424
309.547, 9092.906
310.030, 9617.605
310.512, 10265.150
310.994, 11033.611
311.476, 11885.839
311.958, 12832.130
312.440, 13983.420
312.922, 15372.080
313.404, 17017.285
313.886, 18942.287
314.369, 21116.977
314.851, 23617.844
315.333, 26954.307
315.815, 30860.801
316.297, 33806.531
316.779, 35577.496
317.261, 35907.133
317.743, 34538.402
318.225, 30317.889
318.708, 25730.154
319.190, 21239.029
319.672, 16961.391
320.154, 13365.728
320.636, 10749.694
321.118, 8738.172
321.600, 7145.903
322.082, 6057.637
322.565, 5198.548
323.047, 4587.988
323.529, 4176.339
324.011, 3857.606
324.493, 3633.414
324.975, 3484.551
325.457, 3410.668
325.939, 3443.752
326.422, 3484.646
326.904, 3531.648
327.386, 3582.021
327.868, 3630.784
328.350, 3634.125
328.832, 3679.777
329.314, 3790.197
329.796, 3969.640
330.278, 4198.880
330.760, 4459.262
331.243, 4776.581
331.725, 5184.223
332.207, 5674.553
332.689, 6272.613
333.171, 7004.783
333.653, 7886.254
334.135, 8786.944
334.617, 9944.504
335.100, 10847.814
335.582, 10940.035
336.064, 10012.488
336.546, 8827.460
337.028, 7399.391
337.510, 5796.022
337.992, 4514.824
338.474, 3586.717
338.957, 2908.060
339.439, 2418.984
339.921, 2134.288
340.403, 1946.674
340.885, 1858.250
341.367, 1848.497
341.849, 1852.236
342.331, 1864.516
342.813, 1920.057
343.296, 2037.198
343.778, 2215.201
344.260, 2464.006
344.742, 2789.571
345.224, 3173.898
345.706, 3682.426
346.188, 4308.946
346.670, 4688.485
347.152, 4537.626
347.635, 3965.390
348.117, 3310.644
348.599, 2567.657
349.081, 1862.442
349.563, 1362.600
350.045, 1047.090
350.527, 826.021
351.009, 702.051
351.491, 636.342
351.974, 569.533
352.456, 499.464
352.938, 436.699
353.420, 398.026
353.902, 372.519
354.384, 339.377
354.866, 270.078
355.349, 205.213
355.831, 196.837
356.313, 238.414
356.795, 267.497
357.277, 237.194
357.759, 176.741
358.241, 116.601
358.723, 56.845
359.205, 10.761
359.688, 10.193
360.170, 10.518
360.652, 5.724
361.134, 8.590
361.616, 18.427
362.098, 10.829
362.580, 32.728
363.062, 60.331
363.544, 40.146
364.027, 5.321
364.509, 32.954
364.991, 18.481
365.473, 3.984
365.955, 20.934
366.437, 28.505
366.919, 41.080
367.401, 63.409
367.884, 90.191
368.366, 115.201
368.848, 146.361
369.330, 166.332
369.812, 168.156
370.294, 150.221
370.776, 138.165
371.258, 136.912
371.741, 137.531
372.223, 134.961
372.705, 137.164
373.187, 118.681
373.669, 67.393
374.151, 8.479
374.633, 57.932
375.115, 63.547
375.597, 79.195
376.079, 154.887
376.562, 312.891
377.044, 390.784
377.526, 351.443
378.008, 256.626
378.490, 236.585
378.972, 298.730
379.454, 377.843
379.936, 446.707
380.419, 506.383
380.901, 568.309
381.383, 628.876
381.865, 705.573
382.347, 810.433
382.829, 947.053
383.311, 1129.100
383.793, 1354.263
384.276, 1630.458
384.758, 1994.605
385.240, 2444.798
385.722, 2920.144
386.204, 3361.071
386.686, 3797.159
387.168, 4280.787
387.650, 4837.059
388.132, 5444.069
388.615, 6074.855
389.097, 6739.582
389.579, 7455.861
390.061, 8140.081
390.543, 8930.393
391.025, 9945.115
391.507, 11196.560
391.989, 12694.447
392.471, 14356.017
392.954, 16282.146
393.436, 18619.389
393.918, 21321.684
394.400, 24533.896
394.882, 28689.551
395.364, 33973.023
395.846, 38444.996
396.328, 42971.676
396.810, 45914.684
397.293, 45727.004
397.775, 39687.734
398.257, 33188.836
398.739, 26590.932
399.221, 20059.389
399.703, 14857.920
400.185, 11417.042
400.668, 8935.910
401.150, 7025.414
401.632, 5870.232
402.114, 4958.127
402.596, 4325.730
403.078, 3911.372
403.560, 3577.768
404.042, 3332.798
404.524, 3145.660
405.007, 3005.518
405.489, 2913.396
405.971, 2859.174
406.453, 2842.201
406.935, 2864.907
407.417, 2932.077
407.899, 3043.545
408.381, 3187.436
408.863, 3351.354
409.346, 3548.416
409.828, 3809.498
410.310, 4134.154
410.792, 4547.885
411.274, 5029.113
411.756, 5606.414
412.238, 6365.190
412.720, 7294.379
413.203, 8470.658
413.685, 10060.123
414.167, 12024.192
414.649, 14165.952
415.131, 16512.895
415.613, 18917.910
416.095, 21141.869
416.577, 23159.004
417.060, 25161.873
417.542, 27175.898
418.024, 29298.139
418.506, 31721.535
418.988, 34422.785
419.470, 37471.938
419.952, 40647.992
420.434, 44033.684
420.916, 48357.184
421.398, 53548.062
421.881, 59982.957
422.363, 67976.625
422.845, 76795.141
423.327, 88105.117
423.809, 101828.422
424.291, 118102.227
424.773, 137853.094
425.255, 171004.781
425.738, 197476.203
426.220, 211614.609
426.702, 213137.484
427.184, 201837.438
427.666, 171291.156
428.148, 133364.656
428.630, 101558.570
429.112, 76286.742
429.595, 56218.562
430.077, 41928.238
430.559, 32840.430
431.041, 25783.811
431.523, 20848.771
432.005, 17173.943
432.487, 14280.620
432.969, 12148.631
433.451, 10383.855
433.934, 8977.851
434.416, 7843.094
434.898, 6864.973
435.380, 6038.565
435.862, 5328.910
436.344, 4737.287
436.826, 4245.259
437.308, 3831.656
437.790, 3498.432
438.273, 3203.033
438.755, 2906.642
439.237, 2625.722
439.719, 2389.989
440.201, 2234.227
440.683, 2107.089
441.165, 1971.852
441.647, 1830.755
442.129, 1695.778
442.612, 1576.625
443.094, 1463.790
443.576, 1342.318
444.058, 1202.422
444.540, 1083.707
445.022, 1005.387
445.504, 952.696
445.987, 902.664
446.469, 864.762
446.951, 815.936
447.433, 742.002
447.915, 641.011
448.397, 564.186
448.879, 524.000
449.361, 496.290
449.843, 460.823
450.326, 404.285
450.808, 375.721
451.290, 390.362
451.772, 430.100
452.254, 445.699
452.736, 434.133
453.218, 408.183
453.700, 367.673
454.182, 315.340
454.665, 273.628
455.147, 239.966
455.629, 222.903
456.111, 251.702
456.593, 318.295
457.075, 368.275
457.557, 370.117
458.039, 346.013
458.522, 354.481
459.004, 393.243
459.486, 437.770
459.968, 473.527
460.450, 507.366
460.932, 542.360
461.414, 578.588
461.896, 622.156
462.379, 666.497
462.861, 721.836
463.343, 805.063
463.825, 989.464
464.307, 1147.527
464.789, 1226.901
465.271, 1227.181
465.753, 1181.378
466.235, 1078.626
466.717, 942.855
467.200, 785.918
467.682, 449.222
468.164, 318.081
468.646, 542.490
469.128, 948.939
469.610, 1104.350
470.092, 894.827
470.574, 642.590
471.057, 452.632
471.539, 324.014
472.021, 216.693
472.503, 128.731
472.985, 71.102
473.467, 70.536
473.949, 123.406
474.431, 144.763
474.914, 111.897
475.396, 54.422
475.878, 32.625
476.360, 43.511
476.842, 60.179
477.324, 71.432
477.806, 73.853
478.288, 64.215
478.770, 45.004
479.253, 24.018
479.735, 1.709
480.217, 23.600
480.699, 28.388
481.181, 13.468
481.663, 59.058
482.145, 88.013
482.627, 100.341
483.109, 104.947
483.592, 95.912
484.074, 87.446
484.556, 88.687
485.038, 109.281
485.520, 117.306
486.002, 89.151
486.484, 54.279
486.966, 51.690
487.448, 116.188
487.931, 154.821
488.413, 137.781
488.895, 73.481
489.377, 45.462
489.859, 68.042
490.341, 92.978
490.823, 81.797
491.306, 33.856
491.788, 5.827
492.270, 5.394
492.752, 17.363
493.234, 15.342
493.716, 3.036
494.198, 6.165
494.680, 49.826
495.162, 106.928
495.645, 134.931
496.127, 134.546
496.609, 110.784
497.091, 35.345
497.573, 48.128
498.055, 81.998
498.537, 33.702
499.019, 9.774
499.501, 17.545
499.984, 76.663
500.466, 102.213
500.948, 28.275
501.430, 39.137
501.912, 57.991
502.394, 24.247
502.876, 1.644
503.358, 2.775
503.841, 9.774
504.323, 12.454
504.805, 8.137
505.287, 4.930
505.769, 2.728
506.251, 1.245
506.733, 0.696
507.215, 1.281
507.698, 1.300
508.180, 0.775
508.662, 0.923
509.144, 8.433
509.626, 22.369
510.108, 34.397
510.590, 29.562
511.072, 16.701
511.554, 28.785
512.036, 81.933
512.519, 127.859
513.001, 94.206
513.483, 12.098
513.965, 44.992
514.447, 49.787
514.929, 106.685
515.411, 91.300
515.893, 519.987
516.375, 780.795
516.858, 559.037
517.340, 213.695
517.822, 7.946
518.304, 0.774
518.786, 11.398
519.268, 7.598
519.750, 34.271
520.232, 31.908
520.715, 30.394
521.197, 69.524
521.679, 56.846
522.161, 2.163
522.643, 35.430
523.125, 38.211
523.607, 29.809
524.089, 19.039
524.571, 6.666
525.054, 7.373
525.536, 25.047
526.018, 47.629
526.500, 59.361
526.982, 62.006
527.464, 61.990
527.946, 65.578
528.429, 65.758
528.911, 45.092
529.393, 8.979
529.875, 11.283
530.357, 29.912
530.839, 77.938
531.321, 80.773
531.803, 8.584
532.286, 39.188
532.768, 6.121
533.250, 61.596
533.732, 106.471
534.214, 117.979
534.696, 108.031
535.178, 58.982
535.660, 16.238
536.142, 39.492
536.625, 18.734
537.107, 74.541
537.589, 80.684
538.071, 29.572
538.553, 11.619
539.035, 31.750
539.517, 60.773
539.999, 61.895
540.481, 37.910
540.964, 11.012
541.446, 12.799
541.928, 36.838
542.410, 71.082
542.892, 111.418
543.374, 141.547
543.856, 144.594
544.338, 137.844
544.820, 134.189
545.303, 134.121
545.785, 145.877
546.267, 186.430
546.749, 233.393
547.231, 267.682
547.713, 270.148
548.195, 279.535
548.677, 296.971
549.159, 325.621
549.642, 372.365
550.124, 454.174
550.606, 529.162
551.088, 581.229
551.570, 611.137
552.052, 661.029
552.534, 729.641
553.016, 824.170
553.499, 956.848
553.981, 1123.594
554.463, 1286.936
554.945, 1438.670
555.427, 1596.986
555.909, 1777.422
556.391, 1992.525
556.873, 2264.771
557.356, 2586.424
557.838, 2970.014
558.320, 3436.580
558.802, 3984.709
559.284, 4597.111
559.766, 5268.664
560.248, 5995.568
560.730, 6794.838
561.213, 7675.240
561.695, 8543.193
562.177, 9305.348
562.659, 10089.822
563.141, 11009.234
563.623, 12117.217
564.105, 13278.943
564.587, 14447.488
565.069, 15661.633
565.552, 17045.957
566.034, 18585.650
566.516, 20298.293
566.998, 22185.570
567.480, 24238.809
567.962, 26472.629
568.444, 28858.170
568.926, 31615.443
569.408, 34823.242
569.891, 38513.516
570.373, 42667.191
570.855, 47347.789
571.337, 52417.793
571.819, 58383.012
572.301, 64597.188
572.783, 70018.898
573.265, 75647.969
573.747, 79064.797
574.230, 79082.984
574.712, 75891.695
575.194, 70740.617
575.676, 62143.129
576.158, 53119.641
576.640, 44720.336
577.122, 36913.305
577.604, 30307.434
578.086, 25069.727
578.569, 20889.562
579.051, 17498.881
579.533, 14947.148
580.015, 12877.418
580.497, 11283.918
580.979, 10058.848
581.461, 9041.418
581.943, 8225.553
582.426, 7576.803
582.908, 7118.826
583.390, 6789.357
583.872, 6515.949
584.354, 6298.992
584.836, 6125.066
585.318, 5952.799
585.800, 5840.832
586.282, 5842.898
586.765, 5993.354
587.247, 6189.262
587.729, 6395.590
588.211, 6634.033
588.693, 6928.615
589.175, 7283.363
589.657, 7699.486
590.140, 8174.020
590.622, 8705.299
591.104, 9293.213
591.586, 9945.744
592.068, 10634.621
592.550, 11384.982
593.032, 12175.010
593.514, 12861.318
593.996, 13453.104
594.479, 13778.844
594.961, 13670.764
595.443, 13197.697
595.925, 12451.254
