##NAMES=Tschernichite
##RRUFFID=R060482
##IDEAL CHEMISTRY=CaAl_2_Si_6_O_16_&#183;8H_2_O
##LOCALITY=Neer Road Pit, Goble, Columbia County, Oregon, USA
##OWNER=RRUFF
##SOURCE=Michael Scott
##DESCRIPTION=Colorless steep dipyramidal tetragonal crystals
##STATUS=The identification of this mineral has been confirmed by single-crystal X-ray diffraction.
##URL=rruff.info/R060482
212.160, 0.000
212.642, 0.650
213.124, 0.812
213.606, 2.631
214.088, 17.813
214.570, 50.959
215.052, 73.177
215.535, 77.504
216.017, 66.534
216.499, 56.683
216.981, 45.675
217.463, 39.208
217.945, 41.853
218.427, 51.390
218.909, 66.029
219.391, 85.672
219.874, 82.660
220.356, 97.303
220.838, 106.436
221.320, 112.218
221.802, 98.856
222.284, 107.596
222.766, 106.507
223.248, 104.681
223.731, 110.842
224.213, 152.651
224.695, 199.760
225.177, 236.780
225.659, 243.438
226.141, 199.726
226.623, 166.295
227.105, 162.993
227.587, 188.433
228.070, 218.559
228.552, 262.160
229.034, 302.418
229.516, 313.286
229.998, 268.849
230.480, 241.599
230.962, 258.112
231.444, 332.731
231.926, 372.312
232.409, 361.882
232.891, 330.799
233.373, 325.070
233.855, 369.658
234.337, 398.525
234.819, 390.418
235.301, 379.996
235.783, 415.816
236.266, 440.411
236.748, 454.383
237.230, 425.918
237.712, 451.508
238.194, 512.743
238.676, 521.131
239.158, 505.468
239.640, 524.531
240.122, 535.166
240.605, 537.823
241.087, 508.612
241.569, 520.552
242.051, 516.001
242.533, 510.773
243.015, 519.425
243.497, 513.987
243.980, 483.640
244.462, 480.921
244.944, 464.057
245.426, 446.797
245.908, 446.604
246.390, 415.211
246.872, 414.900
247.354, 402.272
247.836, 395.367
248.318, 376.240
248.801, 360.935
249.283, 347.542
249.765, 346.955
250.247, 329.425
250.729, 292.979
251.211, 310.200
251.693, 314.397
252.176, 306.265
252.658, 248.885
253.140, 255.077
253.622, 235.766
254.104, 215.387
254.586, 230.455
255.068, 180.105
255.550, 194.524
256.032, 183.018
256.514, 183.296
256.997, 157.878
257.479, 140.327
257.961, 148.365
258.443, 142.151
258.925, 113.566
259.407, 114.277
259.889, 62.508
260.371, 60.956
260.854, 50.488
261.336, 46.638
261.818, 23.595
262.300, 30.309
262.782, 66.835
263.264, 80.540
263.746, 75.675
264.228, 62.493
264.711, 32.033
265.193, 11.899
265.675, 25.426
266.157, 88.754
266.639, 123.271
267.121, 113.587
267.603, 74.105
268.085, 53.834
268.567, 63.332
269.050, 89.984
269.532, 60.749
270.014, 36.714
270.496, 25.624
270.978, 66.021
271.460, 40.171
271.942, 41.029
272.424, 43.100
272.906, 8.277
273.389, 41.795
273.871, 7.811
274.353, 0.947
274.835, 18.148
275.317, 10.363
275.799, 10.712
276.281, 15.066
276.763, 35.833
277.246, 92.852
277.728, 190.958
278.210, 249.804
278.692, 248.938
279.174, 214.097
279.656, 211.629
280.138, 245.273
280.620, 289.171
281.103, 329.416
281.585, 365.958
282.067, 398.795
282.549, 427.039
283.031, 452.165
283.513, 477.194
283.995, 501.898
284.477, 528.630
284.959, 559.862
285.441, 595.429
285.924, 631.454
286.406, 667.988
286.888, 704.428
287.370, 737.387
287.852, 766.973
288.334, 799.960
288.816, 845.901
289.298, 901.063
289.781, 945.847
290.263, 977.558
290.745, 999.831
291.227, 1011.995
291.709, 1015.358
292.191, 1027.824
292.673, 1068.272
293.155, 1127.506
293.638, 1173.221
294.120, 1199.348
294.602, 1218.744
295.084, 1252.327
295.566, 1297.346
296.048, 1336.433
296.530, 1356.663
297.012, 1364.635
297.494, 1363.803
297.977, 1390.482
298.459, 1410.452
298.941, 1423.994
299.423, 1411.742
299.905, 1432.075
300.387, 1439.296
300.869, 1445.959
301.351, 1470.859
301.833, 1462.017
302.316, 1486.551
302.798, 1497.746
303.280, 1514.979
303.762, 1519.114
304.244, 1527.148
304.726, 1548.463
305.208, 1562.458
305.690, 1565.000
306.172, 1582.568
306.655, 1573.126
307.137, 1587.330
307.619, 1611.828
308.101, 1614.927
308.583, 1620.477
309.065, 1606.945
309.547, 1608.302
310.030, 1606.901
310.512, 1578.680
310.994, 1542.820
311.476, 1525.945
311.958, 1495.283
312.440, 1504.900
312.922, 1504.057
313.404, 1494.509
313.886, 1448.277
314.369, 1449.478
314.851, 1431.366
315.333, 1412.215
315.815, 1419.817
316.297, 1378.847
316.779, 1385.475
317.261, 1373.084
317.743, 1367.909
318.225, 1343.828
318.708, 1325.417
319.190, 1326.121
319.672, 1315.381
320.154, 1285.037
320.636, 1274.451
321.118, 1224.266
321.600, 1208.823
322.082, 1209.202
322.565, 1180.894
323.047, 1175.293
323.529, 1161.011
324.011, 1106.301
324.493, 1113.499
324.975, 1076.531
325.457, 1037.512
325.939, 1018.366
326.422, 976.251
326.904, 975.846
327.386, 967.087
327.868, 950.054
328.350, 894.274
328.832, 887.161
329.314, 861.322
329.796, 834.713
330.278, 836.604
330.760, 788.288
331.243, 790.067
331.725, 773.326
332.207, 766.667
332.689, 740.630
333.171, 720.682
333.653, 721.505
334.135, 711.296
334.617, 683.930
335.100, 680.378
335.582, 634.742
336.064, 626.102
336.546, 614.953
337.028, 610.130
337.510, 593.814
337.992, 531.482
338.474, 528.664
338.957, 502.052
339.439, 474.505
339.921, 480.185
340.403, 424.756
340.885, 429.994
341.367, 411.080
341.849, 403.285
342.331, 371.558
342.813, 347.284
343.296, 347.045
343.778, 333.576
344.260, 299.284
344.742, 267.341
345.224, 230.791
345.706, 204.494
346.188, 195.705
346.670, 197.622
347.152, 191.726
347.635, 178.003
348.117, 160.607
348.599, 142.929
349.081, 124.221
349.563, 100.533
350.045, 64.053
350.527, 30.634
351.009, 19.203
351.491, 29.647
351.974, 34.859
352.456, 35.124
352.938, 15.435
353.420, 21.659
353.902, 17.591
354.384, 13.165
354.866, 23.228
355.349, 16.399
355.831, 19.549
356.313, 20.342
356.795, 43.971
357.277, 62.146
357.759, 75.169
358.241, 67.378
358.723, 86.270
359.205, 89.840
359.688, 105.035
360.170, 114.989
360.652, 130.354
361.134, 144.503
361.616, 157.503
362.098, 165.688
362.580, 180.188
363.062, 184.331
363.544, 192.434
364.027, 201.541
364.509, 216.584
364.991, 241.895
365.473, 277.565
365.955, 264.557
366.437, 300.163
366.919, 324.070
367.401, 336.910
367.884, 305.297
368.366, 331.277
368.848, 334.296
369.330, 336.455
369.812, 370.785
370.294, 346.073
370.776, 380.072
371.258, 390.766
371.741, 412.259
372.223, 410.652
372.705, 416.301
373.187, 445.249
373.669, 461.460
374.151, 445.807
374.633, 433.974
375.115, 430.182
375.597, 436.786
376.079, 437.295
376.562, 430.165
377.044, 418.798
377.526, 400.265
378.008, 368.648
378.490, 369.027
378.972, 337.527
379.454, 354.716
379.936, 360.256
380.419, 354.775
380.901, 304.870
381.383, 312.623
381.865, 297.465
382.347, 281.517
382.829, 297.822
383.311, 255.136
383.793, 271.240
384.276, 264.084
384.758, 267.792
385.240, 248.443
385.722, 236.386
386.204, 247.665
386.686, 246.240
387.168, 224.760
387.650, 229.962
388.132, 187.857
388.615, 187.485
389.097, 205.197
389.579, 185.490
390.061, 170.765
390.543, 154.557
391.025, 158.969
391.507, 138.958
391.989, 107.069
392.471, 83.462
392.954, 75.015
393.436, 61.911
393.918, 81.541
394.400, 93.324
394.882, 97.687
395.364, 72.167
395.846, 85.424
396.328, 86.830
396.810, 81.282
397.293, 91.653
397.775, 91.850
398.257, 124.714
398.739, 149.744
399.221, 167.364
399.703, 155.154
400.185, 181.115
400.668, 180.522
401.150, 210.175
401.632, 232.579
402.114, 248.126
402.596, 236.065
403.078, 259.826
403.560, 269.335
404.042, 278.330
404.524, 307.345
405.007, 299.679
405.489, 326.567
405.971, 388.522
406.453, 428.354
406.935, 441.520
407.417, 467.621
407.899, 525.473
408.381, 605.027
408.863, 653.917
409.346, 668.092
409.828, 683.364
410.310, 741.622
410.792, 832.664
411.274, 900.618
411.756, 924.464
412.238, 936.250
412.720, 995.835
413.203, 1093.660
413.685, 1177.651
414.167, 1190.317
414.649, 1176.855
415.131, 1208.375
415.613, 1300.417
416.095, 1402.895
416.577, 1475.007
417.060, 1529.143
417.542, 1589.208
418.024, 1681.170
418.506, 1770.030
418.988, 1824.325
419.470, 1844.029
419.952, 1872.347
420.434, 1928.591
420.916, 2000.804
421.398, 2079.448
421.881, 2188.384
422.363, 2274.863
422.845, 2309.504
423.327, 2306.073
423.809, 2326.291
424.291, 2395.684
424.773, 2475.424
425.255, 2549.326
425.738, 2615.856
426.220, 2680.255
426.702, 2744.688
427.184, 2804.677
427.666, 2852.606
428.148, 2881.822
428.630, 2914.010
429.112, 2956.704
429.595, 3010.448
430.077, 3051.097
430.559, 3077.601
431.041, 3097.258
431.523, 3115.402
432.005, 3131.181
432.487, 3146.308
432.969, 3160.014
433.451, 3174.010
433.934, 3191.260
434.416, 3213.036
434.898, 3240.370
435.380, 3278.133
435.862, 3320.933
436.344, 3356.196
436.826, 3383.384
437.308, 3400.508
437.790, 3398.438
438.273, 3384.449
438.755, 3376.130
439.237, 3379.949
439.719, 3393.891
440.201, 3424.111
440.683, 3469.805
441.165, 3505.926
441.647, 3505.034
442.129, 3491.208
442.612, 3489.170
443.094, 3512.786
443.576, 3540.915
444.058, 3575.821
444.540, 3611.246
445.022, 3628.336
445.504, 3602.435
445.987, 3573.623
446.469, 3561.309
446.951, 3577.970
447.433, 3583.418
447.915, 3563.602
448.397, 3538.734
448.879, 3537.698
449.361, 3593.015
449.843, 3616.412
450.326, 3577.869
450.808, 3483.019
451.290, 3407.416
451.772, 3334.143
452.254, 3299.492
452.736, 3265.196
453.218, 3231.099
453.700, 3196.602
454.182, 3161.615
454.665, 3126.577
455.147, 3091.704
455.629, 3057.097
456.111, 3022.053
456.593, 2986.913
457.075, 2951.729
457.557, 2916.726
458.039, 2881.612
458.522, 2846.502
459.004, 2811.395
459.486, 2776.225
459.968, 2741.057
460.450, 2705.887
460.932, 2670.726
461.414, 2635.681
461.896, 2600.672
462.379, 2565.570
462.861, 2407.497
463.343, 2283.257
463.825, 2178.268
464.307, 2094.558
464.789, 2021.141
465.271, 1961.466
465.753, 1907.878
466.235, 1848.657
466.717, 1785.529
467.200, 1713.799
467.682, 1628.024
468.164, 1528.090
468.646, 1439.238
469.128, 1363.267
469.610, 1295.081
470.092, 1231.892
470.574, 1175.320
471.057, 1118.472
471.539, 1061.085
472.021, 1002.523
472.503, 938.978
472.985, 869.766
473.467, 801.833
473.949, 738.917
474.431, 679.950
474.914, 619.845
475.396, 558.033
475.878, 497.401
476.360, 435.885
476.842, 377.441
477.324, 333.506
477.806, 306.183
478.288, 260.204
478.770, 260.257
479.253, 249.166
479.735, 227.412
480.217, 163.426
480.699, 153.844
481.181, 122.445
481.663, 90.146
482.145, 88.181
482.627, 30.243
483.109, 27.765
483.592, 0.919
484.074, 9.035
484.556, 23.005
485.038, 18.312
485.520, 3.283
486.002, 14.975
486.484, 3.678
486.966, 5.867
487.448, 0.422
487.931, 31.401
488.413, 50.154
488.895, 53.244
489.377, 46.029
489.859, 32.778
490.341, 9.263
490.823, 0.227
491.306, 17.791
491.788, 55.289
492.270, 72.847
492.752, 69.881
493.234, 57.984
493.716, 40.280
494.198, 20.399
494.680, 11.926
495.162, 19.310
495.645, 30.729
496.127, 30.987
496.609, 25.196
497.091, 26.764
497.573, 54.957
498.055, 83.879
498.537, 89.828
499.019, 72.852
499.501, 55.829
499.984, 46.039
500.466, 41.873
500.948, 41.970
501.430, 55.538
501.912, 60.075
502.394, 43.691
502.876, 15.735
503.358, 2.077
503.841, 0.441
504.323, 0.485
504.805, 8.751
505.287, 27.703
505.769, 44.576
506.251, 59.006
506.733, 71.965
507.215, 83.799
507.698, 94.254
508.180, 106.165
508.662, 121.774
509.144, 136.337
509.626, 135.325
510.108, 120.345
510.590, 114.099
511.072, 136.309
511.554, 172.050
512.036, 183.778
512.519, 170.664
513.001, 154.391
513.483, 198.541
513.965, 227.802
514.447, 243.031
514.929, 202.843
515.411, 234.605
515.893, 237.846
516.375, 239.468
516.858, 264.988
517.340, 270.731
517.822, 275.719
518.304, 268.459
518.786, 243.134
519.268, 237.108
519.750, 263.656
520.232, 298.687
520.715, 323.533
521.197, 331.875
521.679, 346.592
522.161, 375.873
522.643, 409.321
523.125, 419.714
523.607, 403.281
524.089, 385.350
524.571, 375.532
525.054, 373.544
525.536, 382.030
526.018, 402.113
526.500, 418.538
526.982, 409.716
527.464, 387.077
527.946, 380.154
528.429, 403.617
528.911, 427.054
529.393, 413.265
529.875, 376.708
530.357, 351.357
530.839, 361.005
531.321, 378.820
531.803, 391.248
532.286, 397.320
532.768, 400.485
533.250, 401.998
533.732, 400.903
534.214, 396.450
534.696, 390.204
535.178, 378.183
535.660, 351.912
536.142, 322.880
536.625, 315.828
537.107, 340.742
537.589, 363.032
538.071, 371.824
538.553, 368.972
539.035, 368.594
539.517, 369.160
539.999, 369.936
540.481, 367.541
540.964, 363.378
541.446, 363.990
541.928, 372.903
542.410, 380.357
542.892, 371.063
543.374, 351.113
543.856, 335.743
544.338, 340.280
544.820, 347.255
545.303, 340.329
545.785, 320.454
546.267, 305.009
546.749, 311.981
547.231, 319.916
547.713, 314.939
548.195, 288.221
548.677, 266.553
549.159, 249.266
549.642, 235.865
550.124, 229.269
550.606, 236.979
551.088, 240.902
551.570, 238.320
552.052, 229.983
552.534, 206.148
553.016, 182.111
553.499, 210.126
553.981, 225.097
554.463, 228.095
554.945, 182.233
555.427, 197.178
555.909, 184.996
556.391, 171.245
556.873, 193.410
557.356, 151.976
557.838, 174.959
558.320, 172.523
558.802, 181.620
559.284, 164.420
559.766, 153.943
560.248, 137.738
560.730, 136.277
561.213, 121.717
561.695, 89.265
562.177, 67.656
562.659, 69.074
563.141, 77.657
563.623, 83.617
564.105, 84.964
564.587, 87.221
565.069, 91.156
565.552, 95.182
566.034, 97.435
566.516, 98.332
566.998, 93.513
567.480, 76.661
567.962, 54.500
568.444, 53.092
568.926, 72.248
569.408, 90.546
569.891, 88.273
570.373, 76.381
570.855, 74.639
571.337, 88.159
571.819, 97.642
572.301, 80.939
572.783, 54.866
573.265, 40.940
573.747, 60.863
574.230, 76.853
574.712, 72.941
575.194, 55.520
575.676, 47.592
576.158, 41.907
576.640, 20.911
577.122, 49.956
577.604, 66.889
578.086, 72.331
578.569, 31.729
579.051, 50.487
579.533, 45.397
580.015, 52.052
580.497, 55.058
580.979, 65.134
581.461, 76.322
581.943, 76.751
582.426, 69.981
582.908, 69.205
583.390, 87.960
583.872, 109.466
584.354, 115.639
584.836, 108.248
585.318, 95.687
585.800, 76.022
586.282, 57.061
586.765, 44.258
587.247, 39.159
587.729, 36.407
588.211, 33.821
588.693, 33.902
589.175, 39.639
589.657, 59.533
590.140, 68.952
590.622, 63.183
591.104, 47.208
591.586, 30.670
592.068, 12.197
592.550, 1.655
593.032, 8.042
593.514, 24.559
593.996, 25.707
594.479, 11.822
594.961, 5.976
595.443, 30.380
595.925, 49.787
596.407, 40.790
596.889, 5.580
597.371, 51.596
597.853, 75.858
598.335, 84.406
598.818, 84.734
599.300, 65.941
599.782, 53.678
600.264, 63.035
600.746, 85.182
601.228, 88.392
601.710, 55.329
602.192, 27.929
602.674, 22.565
603.157, 39.401
603.639, 42.017
604.121, 25.971
604.603, 11.526
605.085, 20.755
605.567, 48.815
606.049, 59.023
606.531, 42.918
607.013, 28.253
607.496, 58.971
607.978, 114.691
608.460, 151.026
608.942, 134.690
609.424, 112.243
609.906, 118.642
610.388, 144.251
610.870, 159.904
611.353, 150.192
611.835, 134.988
612.317, 120.871
612.799, 107.644
613.281, 98.033
613.763, 90.657
614.245, 88.019
614.727, 93.157
615.209, 107.427
615.692, 122.029
616.174, 138.406
616.656, 149.602
617.138, 136.643
617.620, 104.995
618.102, 92.240
618.584, 120.980
619.067, 159.432
619.549, 157.189
620.031, 126.092
620.513, 105.156
620.995, 129.156
621.477, 158.529
621.959, 163.107
622.441, 140.916
622.923, 126.088
623.406, 133.792
623.888, 147.210
624.370, 155.625
624.852, 152.943
625.334, 159.396
625.816, 179.890
626.298, 203.956
626.780, 218.283
627.263, 221.992
627.745, 222.436
628.227, 219.979
628.709, 216.753
629.191, 218.605
629.673, 224.141
630.155, 226.016
630.637, 209.840
631.119, 194.611
631.602, 208.716
632.084, 248.397
632.566, 279.212
633.048, 276.478
633.530, 263.597
634.012, 253.212
634.494, 242.883
634.976, 247.752
635.458, 283.397
635.941, 323.521
636.423, 342.895
636.905, 332.133
637.387, 330.714
637.869, 345.382
638.351, 368.129
638.833, 384.816
639.315, 395.373
639.797, 400.309
640.280, 393.192
640.762, 383.602
641.244, 393.718
641.726, 419.517
642.208, 440.344
642.690, 439.702
643.172, 431.276
643.654, 424.700
644.137, 421.021
644.619, 418.524
645.101, 412.523
645.583, 410.493
646.065, 418.928
646.547, 450.065
647.029, 469.437
647.511, 470.551
647.994, 464.310
648.476, 464.783
648.958, 472.180
649.440, 486.438
649.922, 511.853
650.404, 535.560
650.886, 525.113
651.368, 488.057
651.851, 460.740
652.333, 476.115
652.815, 499.587
653.297, 489.850
653.779, 451.382
654.261, 422.651
654.743, 428.593
655.225, 445.827
655.707, 461.594
656.190, 473.708
656.672, 483.185
657.154, 487.749
657.636, 492.577
658.118, 506.383
658.600, 537.435
659.082, 538.659
659.564, 500.615
660.046, 442.412
660.529, 385.925
661.011, 431.552
661.493, 452.931
661.975, 450.895
662.457, 355.366
662.939, 379.428
663.421, 355.043
663.903, 328.744
664.385, 369.453
664.868, 286.540
665.350, 326.273
665.832, 317.108
666.314, 330.328
666.796, 295.093
667.278, 274.834
667.760, 303.062
668.242, 304.456
668.724, 263.671
669.207, 278.358
669.689, 193.951
670.171, 196.516
670.653, 236.611
671.135, 181.635
671.617, 162.275
672.099, 152.074
672.581, 170.236
673.064, 201.550
673.546, 214.814
674.028, 181.407
674.510, 147.734
674.992, 138.779
675.474, 148.233
675.956, 159.374
676.438, 182.304
676.920, 191.523
677.403, 175.494
677.885, 137.558
678.367, 109.845
678.849, 93.098
679.331, 83.845
679.813, 79.318
680.295, 80.014
680.778, 93.596
681.260, 121.062
681.742, 147.895
682.224, 158.859
682.706, 162.198
683.188, 173.777
683.670, 200.525
684.152, 216.943
684.634, 202.550
685.117, 172.657
685.599, 144.417
686.081, 105.062
686.563, 90.052
687.045, 122.483
687.527, 171.519
688.009, 176.930
688.491, 124.929
688.973, 76.728
689.456, 45.005
689.938, 29.910
690.420, 38.104
690.902, 67.192
691.384, 95.518
691.866, 114.274
692.348, 123.312
692.830, 117.831
693.312, 99.624
693.795, 84.440
694.277, 83.315
694.759, 85.328
695.241, 85.937
695.723, 87.146
696.205, 73.779
696.687, 23.112
697.169, 19.007
697.652, 13.715
698.134, 51.000
698.616, 90.829
699.098, 61.027
699.580, 89.995
700.062, 104.708
700.544, 105.929
701.026, 53.238
701.508, 70.185
701.991, 59.238
702.473, 47.154
702.955, 73.931
703.437, 55.026
703.919, 2.992
704.401, 22.117
704.883, 8.478
705.365, 30.452
705.847, 40.928
706.330, 4.261
706.812, 28.449
707.294, 40.139
707.776, 33.913
708.258, 32.260
708.740, 35.758
709.222, 35.131
709.705, 19.027
710.187, 3.966
710.669, 17.991
711.151, 22.448
711.633, 18.824
712.115, 2.747
712.597, 25.056
713.079, 32.339
713.561, 17.093
714.044, 3.606
714.526, 3.164
715.008, 6.893
715.490, 10.790
715.972, 16.578
716.454, 16.667
716.936, 9.535
717.418, 1.568
717.901, 14.887
718.383, 29.179
718.865, 36.862
719.347, 35.464
719.829, 27.282
720.311, 11.139
720.793, 9.557
721.275, 27.280
721.757, 41.140
722.240, 49.247
722.722, 42.990
723.204, 28.411
723.686, 32.319
724.168, 7.146
724.650, 45.330
725.132, 68.155
725.614, 76.443
726.096, 26.613
726.579, 51.852
727.061, 47.022
727.543, 40.975
728.025, 76.820
728.507, 35.502
728.989, 70.701
729.471, 75.372
729.953, 94.035
730.435, 82.442
730.918, 80.208
731.400, 108.258
731.882, 119.553
732.364, 104.510
732.846, 124.115
733.328, 81.847
733.810, 98.933
734.292, 75.009
734.775, 105.125
735.257, 146.331
735.739, 137.490
736.221, 92.166
736.703, 72.241
737.185, 96.524
737.667, 129.080
738.149, 130.442
738.631, 117.840
739.114, 118.271
739.596, 164.616
740.078, 198.000
740.560, 194.484
741.042, 168.527
741.524, 150.350
