##NAMES=Tyrolite
##RRUFFID=R060264
##IDEAL CHEMISTRY=Ca_2_Cu^2+^_9_(As^5+^O_4_)_4_(CO_3_)(OH)_8_&#183;11H_2_O
##LOCALITY=Lovelock mine, Bolivia, Cottonwood Canyon, Churchill County, Nevada, USA
##OWNER=RRUFF
##SOURCE=Michael Scott
##DESCRIPTION=Greenish-blue flat bladed crystals in radial aggregates
##STATUS=The identification of this mineral has been confirmed by single-crystal X-ray diffraction.
##URL=rruff.info/R060264
90.49219, 0.0000000E+00
90.97430, 2.8780000E-02
91.45642, 1.3734000E-02
91.93854, 0.7579770
92.42065, 1.701378
92.90277, 2.299018
93.38489, 2.262817
93.86700, 1.948557
94.34912, 1.579696
94.83124, 1.196131
95.31335, 1.125844
95.79547, 1.734479
96.27759, 2.863747
96.75970, 3.884879
97.24182, 4.751448
97.72394, 5.367031
98.20605, 5.541687
98.68817, 5.229265
99.17029, 5.127694
99.65240, 5.895193
100.1345, 7.661318
100.6166, 9.057876
101.0988, 10.00058
101.5809, 10.51329
102.0630, 10.50176
102.5451, 9.727216
103.0272, 8.886744
103.5093, 8.565096
103.9915, 9.110409
104.4736, 9.767689
104.9557, 10.38454
105.4378, 11.13469
105.9199, 11.56347
106.4020, 11.41351
106.8842, 10.90748
107.3663, 10.84796
107.8484, 11.29650
108.3305, 11.60809
108.8126, 11.56336
109.2947, 10.37147
109.7769, 10.16096
110.2590, 12.14619
110.7411, 16.14750
111.2232, 19.13375
111.7053, 20.43102
112.1874, 21.37233
112.6696, 21.52981
113.1517, 23.85627
113.6338, 25.39016
114.1159, 24.12743
114.5980, 20.24955
115.0801, 17.37041
115.5623, 17.28061
116.0444, 18.03091
116.5265, 18.11142
117.0086, 16.19264
117.4907, 14.36726
117.9728, 13.61279
118.4550, 13.99051
118.9371, 14.21631
119.4192, 13.79655
119.9013, 12.88876
120.3834, 11.67901
120.8655, 9.748815
121.3477, 7.852819
121.8298, 6.649104
122.3119, 6.297409
122.7940, 5.999853
123.2761, 5.049438
123.7582, 3.715837
124.2404, 2.600128
124.7225, 2.136768
125.2046, 2.030911
125.6867, 1.927411
126.1688, 1.777049
126.6509, 1.695556
127.1331, 1.533826
127.6152, 1.496684
128.0973, 1.394631
128.5794, 1.278100
129.0615, 1.042119
129.5436, 0.3568310
130.0258, 1.101687
130.5079, 2.766396
130.9900, 3.526074
131.4721, 3.380524
131.9542, 3.082196
132.4363, 3.551839
132.9185, 4.604272
133.4006, 4.883091
133.8827, 3.548479
134.3648, 1.251700
134.8469, 0.3722850
135.3290, 1.121712
135.8112, 2.364374
136.2933, 2.987463
136.7754, 2.994865
137.2575, 2.386932
137.7396, 1.135271
138.2217, 0.7246020
138.7039, 3.358290
139.1860, 7.139441
139.6681, 11.10864
140.1502, 13.68917
140.6323, 14.39375
141.1144, 15.23450
141.5966, 17.27219
142.0787, 21.05999
142.5608, 23.37021
143.0429, 23.61184
143.5250, 22.71316
144.0071, 22.82589
144.4893, 24.46804
144.9714, 26.27029
145.4535, 27.45547
145.9356, 27.05766
146.4177, 28.12490
146.8998, 31.76121
147.3820, 37.03603
147.8641, 40.13806
148.3462, 39.18830
148.8283, 38.00541
149.3104, 38.76529
149.7925, 42.77357
150.2747, 47.03773
150.7568, 51.58342
151.2389, 56.35187
151.7210, 60.58501
152.2031, 64.58582
152.6852, 67.82865
153.1674, 70.03204
153.6495, 69.29494
154.1316, 69.46856
154.6137, 71.61469
155.0958, 75.78839
155.5779, 79.17162
156.0601, 81.02204
156.5422, 82.13984
157.0243, 83.17865
157.5064, 84.15350
157.9885, 85.15451
158.4706, 86.18156
158.9528, 87.22478
159.4349, 88.39187
159.9170, 89.76785
160.3991, 91.26562
160.8812, 92.78419
161.3633, 94.56518
161.8455, 96.14452
162.3276, 96.94154
162.8097, 96.50462
163.2918, 97.21121
163.7739, 100.9208
164.2560, 106.0903
164.7382, 109.5642
165.2203, 111.1489
165.7024, 112.0403
166.1845, 112.7169
166.6666, 113.2267
167.1487, 113.6157
167.6309, 114.0054
168.1130, 114.3268
168.5951, 114.4022
169.0772, 114.0138
169.5593, 113.4180
170.0414, 112.9021
170.5236, 112.6947
171.0057, 112.1783
171.4878, 110.7016
171.9699, 108.5048
172.4520, 106.3252
172.9341, 104.9335
173.4163, 103.6558
173.8984, 101.5595
174.3805, 97.94132
174.8626, 94.25893
175.3447, 91.80831
175.8268, 90.45158
176.3090, 89.57973
176.7911, 89.26031
177.2732, 89.06257
177.7553, 88.18033
178.2374, 85.88065
178.7195, 83.38985
179.2017, 82.69923
179.6838, 83.61132
180.1659, 84.21909
180.6480, 82.36855
181.1301, 79.07542
181.6122, 76.74180
182.0944, 76.40041
182.5765, 77.13954
183.0586, 77.52187
183.5407, 77.53362
184.0228, 77.39089
184.5049, 77.33914
184.9871, 77.30460
185.4692, 76.99287
185.9513, 76.15486
186.4334, 75.03767
186.9155, 74.23884
187.3976, 73.75303
187.8798, 73.28547
188.3619, 72.79771
188.8440, 72.26851
189.3261, 71.18455
189.8082, 69.01024
190.2903, 66.10179
190.7725, 63.90276
191.2546, 62.51347
191.7367, 61.61905
192.2188, 61.05052
192.7009, 60.68678
193.1830, 59.72423
193.6652, 57.25491
194.1473, 53.74679
194.6294, 52.40069
195.1115, 53.67418
195.5936, 55.77493
196.0757, 56.31406
196.5579, 55.18105
197.0400, 53.62488
197.5221, 51.93476
198.0042, 50.14714
198.4863, 48.85923
198.9684, 48.19699
199.4506, 47.76633
199.9327, 46.86002
200.4148, 45.38736
200.8969, 44.24439
201.3790, 44.07100
201.8611, 44.92570
202.3433, 44.91647
202.8254, 43.93175
203.3075, 42.25897
203.7896, 40.10002
204.2717, 37.21272
204.7538, 34.99391
205.2360, 34.42143
205.7181, 35.78699
206.2002, 35.98206
206.6823, 34.67374
207.1644, 32.59946
207.6465, 31.11435
208.1287, 30.34773
208.6108, 29.74581
209.0929, 29.06164
209.5750, 28.25331
210.0571, 27.65187
210.5392, 27.41634
211.0214, 27.25138
211.5035, 26.43797
211.9856, 24.73036
212.4677, 23.07545
212.9498, 21.94048
213.4319, 21.47578
213.9140, 20.92117
214.3962, 20.24934
214.8783, 19.49448
215.3604, 18.73528
215.8425, 17.96375
216.3246, 17.19356
216.8067, 16.40721
217.2889, 15.56633
217.7710, 14.86255
218.2531, 14.38431
218.7352, 13.99701
219.2173, 13.25838
219.6994, 11.74199
220.1816, 10.68611
220.6637, 10.92387
221.1458, 13.42422
221.6279, 14.30952
222.1100, 12.83775
222.5921, 10.00440
223.0743, 8.436630
223.5564, 8.674133
224.0385, 9.249237
224.5206, 9.547501
225.0027, 9.654526
225.4848, 9.216545
225.9670, 7.774628
226.4491, 5.936165
226.9312, 5.464264
227.4133, 7.319557
227.8954, 8.984680
228.3775, 9.067162
228.8597, 6.445450
229.3418, 5.080460
229.8239, 5.553741
230.3060, 7.159195
230.7881, 7.923279
231.2702, 7.592102
231.7524, 6.809464
232.2345, 5.705170
232.7166, 3.613083
233.1987, 2.798950
233.6808, 3.881714
234.1629, 6.080688
234.6451, 7.294495
235.1272, 6.961548
235.6093, 6.469284
236.0914, 6.460678
236.5735, 7.286148
237.0556, 7.810135
237.5378, 8.013519
238.0199, 7.929459
238.5020, 7.599884
238.9841, 6.843475
239.4662, 6.113235
239.9483, 5.556320
240.4305, 5.037399
240.9126, 5.049469
241.3947, 5.874908
241.8768, 7.140121
242.3589, 7.912033
242.8410, 7.962173
243.3232, 7.864136
243.8053, 7.894287
244.2874, 8.300217
244.7695, 8.155945
245.2516, 6.979568
245.7337, 5.440781
246.2159, 5.206741
246.6980, 7.392014
247.1801, 9.130051
247.6622, 9.144714
248.1443, 6.534225
248.6264, 4.710373
249.1086, 3.666946
249.5907, 3.395935
250.0728, 4.005814
250.5549, 6.061188
251.0370, 8.047638
251.5191, 9.402588
252.0013, 9.986496
252.4834, 10.36266
252.9655, 10.57057
253.4476, 10.53899
253.9297, 9.965652
254.4118, 8.192001
254.8940, 7.116135
255.3761, 7.634613
255.8582, 10.33479
256.3403, 12.29703
256.8224, 13.41063
257.3046, 13.87898
257.7867, 13.89720
258.2688, 13.11659
258.7509, 12.63210
259.2330, 12.86195
259.7151, 13.93367
260.1973, 15.03253
260.6794, 16.26611
261.1615, 17.40211
261.6436, 18.01282
262.1257, 17.90482
262.6078, 17.75652
263.0900, 17.74266
263.5721, 17.86415
264.0542, 18.13573
264.5363, 18.63373
265.0184, 19.19051
265.5005, 19.62561
265.9827, 19.93387
266.4648, 20.12024
266.9469, 20.22496
267.4290, 20.25348
267.9111, 19.84512
268.3932, 18.79117
268.8754, 17.62451
269.3575, 17.03316
269.8396, 17.22060
270.3217, 17.19650
270.8038, 16.56458
271.2859, 15.38222
271.7681, 14.98732
272.2502, 15.69199
272.7323, 16.53938
273.2144, 16.37259
273.6965, 14.92934
274.1786, 13.94571
274.6608, 14.01628
275.1429, 14.91513
275.6250, 14.90970
276.1071, 13.79343
276.5892, 12.37144
277.0714, 11.42271
277.5535, 11.00594
278.0356, 10.46910
278.5177, 9.635391
278.9998, 8.606018
279.4819, 7.735672
279.9641, 6.980591
280.4462, 6.544037
280.9283, 6.806076
281.4104, 7.828384
281.8925, 8.456589
282.3746, 8.406616
282.8568, 7.916229
283.3389, 7.646179
283.8210, 7.629013
284.3031, 7.644180
284.7852, 7.538101
285.2673, 7.312561
285.7495, 6.876831
286.2316, 6.180374
286.7137, 5.521698
287.1958, 5.849747
287.6779, 7.199875
288.1600, 7.959686
288.6422, 6.395004
289.1243, 2.927811
289.6064, 1.022263
290.0885, 1.185959
290.5706, 2.339020
291.0527, 2.743484
291.5349, 2.478897
292.0170, 2.411285
292.4991, 3.242599
292.9812, 4.672592
293.4633, 5.611359
293.9454, 5.947067
294.4276, 5.926590
294.9097, 5.677734
295.3918, 5.270340
295.8739, 4.992554
296.3560, 5.043579
296.8381, 5.370132
297.3203, 5.860779
297.8024, 6.564240
298.2845, 7.082153
298.7666, 6.768478
299.2487, 5.858292
299.7308, 5.090500
300.2130, 4.849014
300.6951, 4.947205
301.1772, 5.208786
301.6593, 5.633224
302.1414, 5.837082
302.6235, 5.297409
303.1057, 4.300934
303.5878, 3.427582
304.0699, 2.827606
304.5520, 2.472778
305.0341, 2.335098
305.5162, 2.412582
305.9984, 2.694351
306.4805, 3.462112
306.9626, 4.353348
307.4447, 4.811951
307.9268, 4.453476
308.4089, 3.935516
308.8911, 3.939316
309.3732, 4.344162
309.8553, 4.521011
310.3374, 3.740906
310.8195, 2.779953
311.3016, 2.486328
311.7838, 3.310608
312.2659, 4.304642
312.7480, 4.889359
313.2301, 5.125122
313.7122, 5.148346
314.1943, 5.010391
314.6765, 4.696396
315.1586, 4.088303
315.6407, 2.998398
316.1228, 2.232651
316.6049, 2.375473
317.0870, 3.018906
317.5692, 3.584396
318.0513, 3.816345
318.5334, 3.987244
319.0155, 4.293945
319.4976, 4.806290
319.9797, 5.058304
320.4619, 4.745728
320.9440, 4.135345
321.4261, 3.534073
321.9082, 2.508438
322.3903, 1.981186
322.8724, 2.578171
323.3546, 4.336975
323.8367, 5.513046
324.3188, 5.163620
324.8009, 4.446899
325.2830, 4.251297
325.7651, 5.472290
326.2473, 6.350449
326.7294, 6.364899
327.2115, 5.666107
327.6936, 5.444580
328.1757, 6.108887
328.6578, 7.021240
329.1400, 7.879532
329.6221, 8.959244
330.1042, 9.593063
330.5863, 9.574402
331.0684, 9.098129
331.5505, 8.743546
332.0327, 8.632355
332.5148, 8.491638
332.9969, 8.218185
333.4790, 7.807205
333.9611, 7.276459
334.4432, 6.565842
334.9254, 5.765686
335.4075, 5.042847
335.8896, 4.425934
336.3717, 3.820343
336.8538, 3.221237
337.3359, 2.633743
337.8180, 1.935028
338.3001, 1.069016
338.7823, 0.1828460
339.2644, 0.5143740
339.7465, 0.9687500
340.2286, 1.530533
340.7107, 2.481186
341.1928, 3.655777
341.6750, 3.555634
342.1571, 1.825180
342.6392, 0.1425320
343.1213, 2.4673000E-02
343.6034, 1.495132
344.0855, 3.105560
344.5677, 4.793762
345.0498, 6.297501
345.5319, 6.844604
346.0140, 6.415192
346.4961, 5.609711
346.9782, 4.585495
347.4604, 3.439453
347.9425, 2.698929
348.4246, 2.414093
348.9067, 2.504883
349.3888, 3.206955
349.8709, 4.344254
350.3531, 4.942841
350.8352, 3.910706
351.3173, 2.139359
351.7994, 1.615082
352.2815, 2.514984
352.7636, 3.326462
353.2458, 2.126846
353.7279, 0.2481990
354.2100, 1.985382
354.6921, 1.978683
355.1742, 1.284668
355.6563, 0.8302000
356.1385, 0.6269230
356.6206, 0.7716060
357.1027, 1.610168
357.5848, 2.729767
358.0669, 3.653183
358.5490, 4.187454
359.0312, 4.590134
359.5133, 5.171310
359.9954, 5.784897
360.4775, 5.992371
360.9596, 4.989365
361.4417, 3.895050
361.9239, 3.563751
362.4060, 4.425934
362.8881, 5.170761
363.3702, 5.239319
363.8523, 4.894852
364.3344, 4.541138
364.8166, 4.537857
365.2987, 4.323471
365.7808, 3.367249
366.2629, 1.442856
366.7450, 0.5328520
367.2271, 2.307343
367.7093, 4.564713
368.1914, 5.369537
368.6735, 2.705414
369.1556, 0.6286470
369.6377, 5.8166999E-02
370.1198, 0.4702760
370.6020, 0.7925420
371.0841, 0.8307500
371.5662, 0.7360990
372.0483, 0.5732270
372.5304, 0.2433780
373.0125, 2.5180001E-03
373.4947, 0.3099210
373.9768, 0.4736790
374.4589, 0.2180940
374.9410, 2.463821
375.4231, 4.122711
375.9052, 4.167114
376.3874, 2.310791
376.8695, 1.076401
377.3516, 0.4890750
377.8337, 0.4642640
378.3158, 0.9857640
378.7979, 2.118835
379.2801, 3.381622
379.7622, 4.854187
380.2443, 6.336258
380.7264, 6.703583
381.2085, 5.779388
381.6906, 4.971024
382.1728, 5.936615
382.6549, 8.305267
383.1370, 9.468262
383.6191, 8.585144
384.1012, 7.042572
384.5833, 7.497482
385.0655, 9.670502
385.5476, 11.43912
386.0297, 11.04976
386.5118, 9.571503
386.9939, 8.978790
387.4760, 9.499313
387.9582, 10.44069
388.4403, 11.60425
388.9224, 12.70456
389.4045, 13.15125
389.8866, 11.76572
390.3687, 10.27901
390.8509, 10.40649
391.3330, 12.02058
391.8151, 13.62993
392.2972, 14.61729
392.7793, 15.03731
393.2614, 14.87517
393.7436, 13.53290
394.2257, 12.46069
394.7078, 12.37839
395.1899, 13.04807
395.6720, 13.84566
396.1541, 14.58464
396.6363, 15.35536
397.1184, 16.26369
397.6005, 17.45598
398.0826, 18.41161
398.5647, 19.03580
399.0468, 19.34457
399.5290, 19.45224
400.0111, 18.89424
400.4932, 18.83690
400.9753, 19.61551
401.4574, 21.14319
401.9395, 22.02364
402.4217, 21.64433
402.9038, 21.26845
403.3859, 21.92906
403.8680, 24.49866
404.3501, 26.19745
404.8322, 26.54556
405.3144, 26.05922
405.7965, 25.92944
406.2786, 26.05769
406.7607, 26.73293
407.2428, 28.33838
407.7249, 30.90733
408.2071, 32.65279
408.6892, 33.60085
409.1713, 34.11429
409.6534, 34.28349
410.1355, 34.05943
410.6176, 34.18967
411.0998, 35.19151
411.5819, 36.75522
412.0640, 37.72032
412.5461, 38.05675
413.0282, 38.73012
413.5103, 41.04967
413.9925, 44.17329
414.4746, 46.22769
414.9567, 46.64415
415.4388, 46.78093
415.9209, 48.29305
416.4030, 50.66368
416.8852, 52.65414
417.3673, 53.76762
417.8494, 54.13055
418.3315, 53.69325
418.8136, 52.44920
419.2957, 50.99033
419.7779, 49.00514
420.2600, 47.24654
420.7421, 46.50366
421.2242, 49.25458
421.7063, 50.68941
422.1884, 48.39067
422.6706, 43.32117
423.1527, 39.03342
423.6348, 36.71361
424.1169, 35.10205
424.5990, 33.69673
425.0811, 32.83514
425.5633, 31.48026
426.0454, 29.37964
426.5275, 26.87555
427.0096, 24.27933
427.4917, 20.98961
427.9738, 18.61441
428.4560, 17.82864
428.9381, 18.50966
429.4202, 18.16168
429.9023, 16.45834
430.3844, 14.32503
430.8665, 12.39754
431.3487, 10.68512
431.8308, 9.032104
432.3129, 7.345612
432.7950, 5.897324
433.2771, 5.411362
433.7592, 5.917328
434.2414, 6.687347
434.7235, 7.741272
435.2056, 8.829071
435.6877, 8.512711
436.1698, 6.652237
436.6519, 5.118896
437.1341, 6.667145
437.6162, 10.05711
438.0983, 11.94798
438.5804, 10.73845
439.0625, 8.657990
439.5446, 8.033524
440.0268, 8.674377
440.5089, 9.882980
440.9910, 12.27031
441.4731, 14.44872
441.9552, 14.80070
442.4373, 12.72383
442.9195, 11.20456
443.4016, 12.16925
443.8837, 14.41585
444.3658, 16.48286
444.8479, 18.07927
445.3300, 19.29102
445.8122, 19.94809
446.2943, 20.13023
446.7764, 20.56590
447.2585, 21.04401
447.7406, 22.04199
448.2227, 23.90251
448.7049, 27.38348
449.1870, 30.22032
449.6691, 32.19237
450.1512, 33.61705
450.6333, 34.88014
451.1154, 35.75902
451.5976, 37.00922
452.0797, 39.05182
452.5618, 41.78671
453.0439, 43.51376
453.5260, 43.99423
454.0081, 44.11754
454.4903, 44.37537
454.9724, 44.77197
455.4545, 45.92931
455.9366, 48.12294
456.4187, 50.67075
456.9008, 52.48285
457.3830, 53.60413
457.8651, 54.22316
458.3472, 54.37070
458.8293, 54.11520
459.3114, 53.31889
459.7935, 52.00375
460.2757, 51.03738
460.7578, 51.44177
461.2399, 52.54257
461.7220, 53.46225
462.2041, 54.19084
462.6862, 54.32086
463.1684, 53.02560
463.6505, 50.90787
464.1326, 49.39775
464.6147, 49.79018
465.0968, 50.33151
465.5789, 50.20906
466.0611, 49.33911
466.5432, 47.96559
467.0253, 45.57339
467.5074, 43.00194
467.9895, 40.96191
468.4716, 39.42319
468.9538, 38.49796
469.4359, 38.64658
469.9180, 39.41196
470.4001, 39.28239
470.8822, 37.89748
471.3643, 36.26271
471.8465, 34.75375
472.3286, 33.38501
472.8107, 31.96786
473.2928, 30.45361
473.7749, 29.06378
474.2570, 28.32773
474.7392, 28.23723
475.2213, 27.34381
475.7034, 24.92453
476.1855, 22.02022
476.6676, 21.08325
477.1497, 21.91330
477.6319, 22.65884
478.1140, 22.01295
478.5961, 20.61983
479.0782, 19.53122
479.5603, 18.82706
480.0424, 18.25281
480.5246, 17.57820
481.0067, 16.90871
481.4888, 16.39314
481.9709, 16.12973
482.4530, 15.96365
482.9352, 15.86728
483.4173, 15.81279
483.8994, 15.71416
484.3815, 15.57254
484.8636, 15.35284
485.3457, 14.93729
485.8279, 14.13670
486.3100, 13.82809
486.7921, 14.55374
487.2742, 15.54810
487.7563, 16.14896
488.2384, 16.18427
488.7206, 16.09138
489.2027, 15.74858
489.6848, 15.33977
490.1669, 15.65888
490.6490, 16.96515
491.1311, 18.23799
491.6133, 18.86957
492.0954, 18.89130
492.5775, 19.39909
493.0596, 20.43456
493.5417, 21.59178
494.0238, 22.56934
494.5060, 23.36705
494.9881, 23.84309
495.4702, 23.68199
495.9523, 23.67911
496.4344, 25.35191
496.9165, 28.18867
497.3987, 30.48428
497.8808, 30.82732
498.3629, 30.47754
498.8450, 30.38478
499.3271, 30.59627
499.8092, 31.68054
500.2914, 34.68700
500.7735, 38.14618
501.2556, 40.79095
501.7377, 41.84483
502.2198, 42.61186
502.7019, 43.21977
503.1841, 43.74104
503.6662, 44.37311
504.1483, 45.14648
504.6304, 46.05048
505.1125, 47.15089
505.5946, 48.46031
506.0768, 49.35033
506.5589, 49.49792
507.0410, 49.77147
507.5231, 51.05142
508.0052, 53.54774
508.4873, 55.04732
508.9695, 55.19218
509.4516, 54.55205
509.9337, 53.77411
510.4158, 52.86125
510.8979, 52.39954
511.3800, 52.72482
511.8622, 53.56607
512.3443, 54.53300
512.8264, 55.64168
513.3085, 56.69868
513.7906, 57.90924
514.2728, 58.83224
514.7549, 58.80104
515.2370, 57.48499
515.7191, 55.85004
516.2012, 54.22350
516.6833, 52.71741
517.1655, 51.47972
517.6476, 50.67026
518.1297, 50.18416
518.6118, 50.31386
519.0939, 50.82678
519.5760, 50.19878
520.0582, 47.10426
520.5403, 43.89000
521.0224, 41.63684
521.5045, 40.80913
521.9866, 39.40948
522.4688, 36.94437
522.9509, 34.38657
523.4330, 33.07347
523.9151, 33.28757
524.3972, 33.24969
524.8793, 32.60182
525.3615, 31.47127
525.8436, 29.96225
526.3257, 28.07327
526.8078, 26.44899
527.2899, 25.78751
527.7720, 25.57716
528.2542, 24.59370
528.7363, 22.77821
529.2184, 20.78210
529.7005, 18.81892
530.1826, 17.13820
530.6647, 16.17235
531.1469, 16.55063
531.6290, 16.84785
532.1111, 16.04861
532.5932, 14.61459
533.0753, 13.49431
533.5574, 13.29442
534.0396, 13.11972
534.5217, 12.63199
535.0038, 11.81136
535.4859, 11.04503
535.9680, 10.15527
536.4501, 9.484161
536.9323, 9.320557
537.4144, 10.04478
537.8965, 10.19681
538.3786, 9.658585
538.8607, 8.681564
539.3428, 7.438248
539.8250, 5.853241
540.3071, 4.940979
540.7892, 5.279953
541.2713, 6.265572
541.7534, 6.374283
542.2355, 5.668953
542.7177, 4.834488
543.1998, 4.196037
543.6819, 3.738724
544.1640, 3.483582
544.6461, 3.438522
545.1282, 3.409004
545.6104, 3.564911
546.0925, 3.542259
546.5746, 2.891960
547.0567, 0.8367920
547.5388, 0.9469150
548.0209, 1.811127
548.5031, 2.003426
548.9852, 2.093536
549.4673, 2.404724
549.9494, 2.352249
550.4315, 1.633438
550.9136, 0.2530440
551.3958, 0.7883990
551.8779, 1.662071
552.3600, 1.920235
552.8421, 0.9532240
553.3242, 1.471397
553.8063, 2.846794
554.2885, 2.992134
554.7706, 2.321968
555.2527, 0.7806470
555.7348, 1.352951
556.2169, 2.175987
556.6990, 0.5140150
557.1812, 1.950584
557.6633, 2.869972
558.1454, 2.520714
558.6275, 1.939537
559.1096, 1.572578
559.5917, 1.317307
560.0739, 1.103165
