##NAMES=Valentinite
##RRUFFID=R060516
##IDEAL CHEMISTRY=Sb_2_O_3_
##LOCALITY=Sombrerete, Zacatecas, Mexico
##OWNER=RRUFF
##SOURCE=Michael Scott
##DESCRIPTION=Colorless prismatic single crystals, adamantine luster, associated with pyrite and black metallic, elongated jamesonite.
##STATUS=The identification of this mineral is confirmed by single-crystal X-ray diffraction and chemical analysis.
##URL=rruff.info/R060516
##MEASURED CHEMISTRY=Sb_2.00_O_3_
89.78320, 0.0000000E+00
90.26532, 140.2637
90.74744, 44.38086
91.22955, 4.155273
91.71167, 54.70605
92.19379, 112.7021
92.67590, 185.5479
93.15802, 206.7998
93.64014, 147.7637
94.12225, 47.71875
94.60437, 24.39160
95.08649, 45.03125
95.56860, 33.99707
96.05072, 27.27930
96.53284, 17.50488
97.01495, 11.17090
97.49707, 69.01855
97.97919, 153.8730
98.46130, 264.2490
98.94342, 397.5986
99.42554, 557.0488
99.90765, 758.4287
100.3898, 1011.355
100.8719, 1291.769
101.3540, 1576.486
101.8361, 1878.754
102.3182, 2141.151
102.8004, 2347.486
103.2825, 2494.771
103.7646, 2594.729
104.2467, 2621.175
104.7288, 2614.174
105.2109, 2664.674
105.6931, 2771.284
106.1752, 2932.404
106.6573, 3156.761
107.1394, 3514.970
107.6215, 3818.426
108.1036, 4115.027
108.5858, 4393.896
109.0679, 4518.319
109.5500, 4418.764
110.0321, 4223.502
110.5142, 3995.848
110.9963, 3645.027
111.4785, 3334.285
111.9606, 3068.481
112.4427, 2847.852
112.9248, 2707.404
113.4069, 2667.510
113.8890, 2698.612
114.3712, 2776.949
114.8533, 2894.632
115.3354, 3060.222
115.8175, 3280.791
116.2996, 3561.748
116.7817, 3871.404
117.2639, 4171.457
117.7460, 4502.804
118.2281, 4917.442
118.7102, 5403.957
119.1923, 6002.447
119.6744, 6710.762
120.1566, 7511.265
120.6387, 8506.737
121.1208, 9715.058
121.6029, 11155.36
122.0850, 12859.75
122.5671, 14892.81
123.0493, 17176.92
123.5314, 19678.74
124.0135, 22465.53
124.4956, 25300.26
124.9777, 27968.94
125.4598, 30531.04
125.9420, 33049.75
126.4241, 35457.90
126.9062, 37855.75
127.3883, 40418.16
127.8704, 43161.19
128.3525, 46031.11
128.8347, 48990.32
129.3168, 52023.25
129.7989, 55004.23
130.2810, 57876.61
130.7631, 60595.17
131.2452, 63160.08
131.7274, 65517.19
132.2095, 67729.34
132.6916, 69943.80
133.1737, 72207.36
133.6558, 74722.45
134.1379, 77624.41
134.6201, 80919.06
135.1022, 84939.35
135.5843, 89621.23
136.0664, 95045.56
136.5485, 101651.2
137.0306, 109467.5
137.5128, 118520.5
137.9949, 129117.5
138.4770, 141371.6
138.9591, 154882.2
139.4412, 170001.2
139.9233, 186736.1
140.4055, 203651.0
140.8876, 222283.6
141.3697, 239539.5
141.8518, 251042.9
142.3339, 257527.1
142.8160, 256586.6
143.2982, 246156.8
143.7803, 223317.0
144.2624, 200375.8
144.7445, 176577.1
145.2266, 152916.2
145.7087, 132694.1
146.1909, 116313.0
146.6730, 102415.0
147.1551, 90407.38
147.6372, 81151.48
148.1193, 72626.06
148.6014, 64815.84
149.0836, 57740.69
149.5657, 51161.31
150.0478, 45119.75
150.5299, 39676.33
151.0120, 34828.36
151.4941, 30720.83
151.9763, 27085.70
152.4584, 23967.33
152.9405, 21333.56
153.4226, 18941.12
153.9047, 16815.94
154.3868, 14898.54
154.8690, 13156.61
155.3511, 11628.41
155.8332, 10230.11
156.3153, 8975.840
156.7974, 7859.381
157.2795, 6830.803
157.7617, 5894.715
158.2438, 5035.021
158.7259, 4240.152
159.2080, 3515.154
159.6901, 2847.807
160.1722, 2240.297
160.6544, 1691.693
161.1365, 1184.475
161.6186, 717.2422
162.1007, 288.8086
162.5828, 110.8438
163.0649, 483.5410
163.5471, 825.5020
164.0292, 1135.094
164.5113, 1412.441
164.9934, 1659.037
165.4755, 1878.238
165.9576, 2067.115
166.4398, 2220.951
166.9219, 2337.123
167.4040, 2419.686
167.8861, 2475.641
168.3682, 2506.248
168.8503, 2494.168
169.3325, 2428.082
169.8146, 2310.697
170.2967, 2150.076
170.7788, 1930.260
171.2609, 1675.371
171.7430, 1411.783
172.2252, 1140.055
172.7073, 850.2676
173.1894, 531.6914
173.6715, 184.6387
174.1536, 172.9531
174.6357, 534.4082
175.1179, 910.3008
175.6000, 1315.564
176.0821, 1747.078
176.5642, 2203.410
177.0463, 2674.816
177.5284, 3169.371
178.0106, 3700.785
178.4927, 4264.793
178.9748, 4876.447
179.4569, 5540.986
179.9390, 6263.674
180.4211, 7049.936
180.9033, 7920.316
181.3854, 8877.102
181.8675, 9898.314
182.3496, 10968.97
182.8317, 12094.23
183.3138, 13351.46
183.7960, 14737.27
184.2781, 16249.49
184.7602, 17875.86
185.2423, 19624.26
185.7244, 21420.54
186.2065, 23306.75
186.6887, 25232.60
187.1708, 27075.78
187.6529, 28856.71
188.1350, 30471.00
188.6171, 31767.29
189.0992, 32753.97
189.5814, 33291.90
190.0635, 33291.93
190.5456, 32763.90
191.0277, 31750.90
191.5098, 30200.93
191.9919, 28257.99
192.4741, 26141.04
192.9562, 23847.04
193.4383, 21616.84
193.9204, 19583.72
194.4025, 17752.03
194.8846, 16199.78
195.3668, 14945.23
195.8489, 13964.96
196.3310, 13206.32
196.8131, 12668.61
197.2952, 12358.16
197.7773, 12287.04
198.2595, 12457.40
198.7416, 12836.47
199.2237, 13437.75
199.7058, 14225.10
200.1879, 15097.77
200.6700, 16067.53
201.1522, 17115.86
201.6343, 18246.29
202.1164, 19464.91
202.5985, 20706.07
203.0806, 21931.33
203.5627, 23177.44
204.0449, 24539.71
204.5270, 26019.17
205.0091, 27610.66
205.4912, 29297.61
205.9733, 31067.75
206.4554, 33002.00
206.9376, 35110.48
207.4197, 37382.68
207.9018, 39841.28
208.3839, 42453.12
208.8660, 45351.11
209.3481, 48563.29
209.8303, 52077.67
210.3124, 56027.30
210.7945, 60428.09
211.2766, 65261.87
211.7587, 70642.57
212.2408, 76630.31
212.7230, 83077.45
213.2051, 90014.71
213.6872, 97561.30
214.1693, 105280.2
214.6514, 113276.7
215.1335, 121401.3
215.6157, 128750.8
216.0978, 135751.6
216.5799, 141294.5
217.0620, 144818.9
217.5441, 146428.9
218.0262, 145612.6
218.5084, 142004.0
218.9905, 135849.2
219.4726, 128578.9
219.9547, 119657.6
220.4368, 110340.5
220.9189, 101419.8
221.4011, 92669.39
221.8832, 84733.46
222.3653, 77624.55
222.8474, 71365.51
223.3295, 65751.69
223.8116, 60957.20
224.2938, 56718.88
224.7759, 52928.45
225.2580, 49697.86
225.7401, 46727.25
226.2222, 44020.92
226.7043, 41560.31
227.1865, 39160.33
227.6686, 36882.93
228.1507, 34645.27
228.6328, 32428.01
229.1149, 30241.69
229.5970, 28065.05
230.0792, 25898.07
230.5613, 23743.09
231.0434, 21667.11
231.5255, 19686.59
232.0076, 17801.97
232.4897, 16027.05
232.9719, 14354.24
233.4540, 12788.96
233.9361, 11311.75
234.4182, 9933.816
234.9003, 8673.707
235.3824, 7544.195
235.8646, 6513.652
236.3467, 5565.738
236.8288, 4692.730
237.3109, 3918.715
237.7930, 3253.898
238.2751, 2683.590
238.7573, 2179.785
239.2394, 1729.223
239.7215, 1362.215
240.2036, 1093.023
240.6857, 942.7969
241.1678, 840.5742
241.6500, 780.8047
242.1321, 769.3906
242.6142, 823.8047
243.0963, 946.5273
243.5784, 1132.086
244.0605, 1383.062
244.5427, 1729.371
245.0248, 2067.289
245.5069, 2381.828
245.9890, 2696.273
246.4711, 3053.160
246.9532, 3457.215
247.4354, 3903.410
247.9175, 4384.809
248.3996, 4903.016
248.8817, 5462.105
249.3638, 6061.395
249.8459, 6703.121
250.3281, 7386.781
250.8102, 8097.812
251.2923, 8880.629
251.7744, 9760.410
252.2565, 10733.04
252.7386, 11780.71
253.2208, 12892.48
253.7029, 14086.98
254.1850, 15420.68
254.6671, 16926.97
255.1492, 18514.55
255.6313, 20153.15
256.1135, 21837.67
256.5956, 23570.48
257.0777, 25378.98
257.5598, 27184.92
258.0419, 28897.31
258.5240, 30535.78
259.0062, 31994.62
259.4883, 33263.71
259.9704, 34325.10
260.4525, 35127.75
260.9346, 35614.52
261.4167, 35902.73
261.8989, 36098.95
262.3810, 36159.67
262.8631, 36239.17
263.3452, 36350.17
263.8273, 36496.88
264.3094, 36778.05
264.7916, 37197.02
265.2737, 37753.62
265.7558, 38453.52
266.2379, 39289.59
266.7200, 40284.82
267.2021, 41469.43
267.6843, 42829.91
268.1664, 44269.92
268.6485, 45768.70
269.1306, 47381.71
269.6127, 49131.36
270.0948, 51004.13
270.5770, 53041.14
271.0591, 55244.26
271.5412, 57594.29
272.0233, 60083.58
272.5054, 62679.18
272.9875, 65394.05
273.4697, 68204.80
273.9518, 71124.70
274.4339, 74222.01
274.9160, 77513.05
275.3981, 80968.27
275.8802, 84578.67
276.3624, 88286.37
276.8445, 92173.84
277.3266, 96288.94
277.8087, 100635.6
278.2908, 105156.2
278.7729, 109822.5
279.2551, 114685.5
279.7372, 119764.9
280.2193, 125095.1
280.7014, 130549.7
281.1835, 136099.3
281.6656, 141745.1
282.1478, 147568.4
282.6299, 153584.7
283.1120, 159755.8
283.5941, 166055.8
284.0762, 172520.8
284.5583, 178970.3
285.0405, 185368.2
285.5226, 191721.9
286.0047, 198101.5
286.4868, 204512.8
286.9689, 210932.4
287.4510, 217334.0
287.9332, 223716.0
288.4153, 230132.5
288.8974, 236516.5
289.3795, 242882.4
289.8616, 249114.2
290.3438, 255219.8
290.8259, 261122.6
291.3080, 266847.6
291.7901, 272310.3
292.2722, 277338.5
292.7543, 281848.8
293.2365, 285844.8
293.7186, 289348.0
294.2007, 292331.7
294.6828, 294663.0
295.1649, 296235.8
295.6470, 297043.7
296.1292, 297116.6
296.6113, 296478.9
297.0934, 295089.7
297.5755, 292862.3
298.0576, 289788.3
298.5397, 285947.7
299.0219, 281238.0
299.5040, 275765.2
299.9861, 269796.9
300.4682, 263334.5
300.9503, 256528.0
301.4324, 249412.0
301.9146, 242064.0
302.3967, 234484.4
302.8788, 226675.3
303.3609, 218688.3
303.8430, 210701.1
304.3251, 202711.2
304.8073, 194832.5
305.2894, 187012.0
305.7715, 179351.5
306.2536, 171874.4
306.7357, 164694.3
307.2178, 157713.7
307.7000, 150932.2
308.1821, 144330.9
308.6642, 137948.0
309.1463, 131714.2
309.6284, 125693.3
310.1105, 119868.7
310.5927, 114287.7
311.0748, 108956.1
311.5569, 103835.8
312.0390, 98929.09
312.5211, 94212.27
313.0032, 89633.73
313.4854, 85190.76
313.9675, 80943.77
314.4496, 76938.07
314.9317, 73124.32
315.4138, 69444.87
315.8959, 65917.55
316.3781, 62528.51
316.8602, 59309.01
317.3423, 56241.96
317.8244, 53327.79
318.3065, 50598.80
318.7886, 47982.71
319.2708, 45476.95
319.7529, 43082.88
320.2350, 40815.85
320.7171, 38651.87
321.1992, 36619.29
321.6813, 34693.09
322.1635, 32878.35
322.6456, 31151.04
323.1277, 29517.50
323.6098, 27966.13
324.0919, 26470.55
324.5740, 25055.97
325.0562, 23690.50
325.5383, 22369.89
326.0204, 21097.54
326.5025, 19855.39
326.9846, 18626.35
327.4667, 17438.29
327.9489, 16303.52
328.4310, 15226.30
328.9131, 14196.30
329.3952, 13209.91
329.8773, 12267.84
330.3594, 11345.40
330.8416, 10437.28
331.3237, 9565.379
331.8058, 8748.738
332.2879, 7989.109
332.7700, 7276.107
333.2521, 6601.363
333.7343, 5963.766
334.2164, 5356.723
334.6985, 4790.555
335.1806, 4250.994
335.6627, 3726.105
336.1448, 3211.420
336.6270, 2743.627
337.1091, 2333.045
337.5912, 1970.014
338.0733, 1628.020
338.5554, 1312.354
339.0375, 1016.867
339.5197, 739.5352
340.0018, 484.5586
340.4839, 239.8613
340.9660, 10.05273
341.4481, 202.2773
341.9302, 381.4023
342.4124, 528.8008
342.8945, 665.7441
343.3766, 810.0254
343.8587, 949.8770
344.3408, 1035.525
344.8229, 1059.879
345.3051, 1068.193
345.7872, 1105.412
346.2693, 1164.816
346.7514, 1209.881
347.2335, 1229.578
347.7156, 1232.510
348.1978, 1228.496
348.6799, 1217.561
349.1620, 1201.291
349.6441, 1184.592
350.1262, 1161.783
350.6083, 1115.658
351.0905, 1040.527
351.5726, 960.0664
352.0547, 910.4004
352.5368, 881.0840
353.0189, 839.3398
353.5010, 759.3340
353.9832, 664.3242
354.4653, 580.0020
354.9474, 508.4121
355.4295, 442.9941
355.9116, 387.5645
356.3937, 334.2832
356.8759, 269.7695
357.3580, 175.1504
357.8401, 84.56055
358.3222, 22.55859
358.8043, 14.33789
359.2864, 47.13086
359.7686, 83.10156
360.2507, 119.4238
360.7328, 155.7773
361.2149, 192.7578
361.6970, 225.3574
362.1791, 254.7695
362.6613, 278.7168
363.1434, 292.7168
363.6255, 283.9648
364.1076, 274.7656
364.5897, 274.7734
365.0718, 290.4180
365.5540, 305.1348
366.0361, 320.7266
366.5182, 333.2285
367.0003, 337.7715
367.4824, 327.4512
367.9645, 316.0469
368.4467, 304.1250
368.9288, 293.7559
369.4109, 288.3516
369.8930, 290.1641
370.3751, 296.3340
370.8572, 304.9883
371.3394, 323.3867
371.8215, 334.1211
372.3036, 332.0801
372.7857, 321.5586
373.2678, 315.9941
373.7499, 311.5469
374.2321, 316.1855
374.7142, 337.0918
375.1963, 378.8965
375.6784, 411.9863
376.1605, 431.1523
376.6426, 449.3027
377.1248, 494.3828
377.6069, 572.0762
378.0890, 637.4043
378.5711, 670.3516
379.0532, 676.4141
379.5353, 701.3574
380.0175, 746.6895
380.4996, 800.3223
380.9817, 851.4961
381.4638, 900.8809
381.9459, 951.4531
382.4280, 1003.709
382.9102, 1058.188
383.3923, 1118.809
383.8744, 1184.516
384.3565, 1248.784
384.8386, 1306.761
385.3207, 1360.350
385.8029, 1413.838
386.2850, 1466.818
386.7671, 1521.982
387.2492, 1584.677
387.7313, 1651.527
388.2134, 1715.431
388.6956, 1770.662
389.1777, 1823.682
389.6598, 1881.133
390.1419, 1943.022
390.6240, 2003.703
391.1061, 2064.237
391.5883, 2119.944
392.0704, 2165.921
392.5525, 2200.699
393.0346, 2226.211
393.5167, 2240.512
393.9988, 2245.459
394.4810, 2245.576
394.9631, 2241.780
395.4452, 2233.980
395.9273, 2223.633
396.4094, 2213.907
396.8915, 2191.541
397.3737, 2151.765
397.8558, 2098.484
398.3379, 2036.525
398.8200, 1958.381
399.3021, 1875.406
399.7842, 1788.179
400.2664, 1696.542
400.7485, 1601.402
401.2306, 1505.186
401.7127, 1402.786
402.1948, 1293.214
402.6769, 1175.224
403.1591, 1059.573
403.6412, 943.7568
404.1233, 829.5801
404.6054, 721.0186
405.0875, 621.1885
405.5696, 526.4043
406.0518, 437.2637
406.5339, 354.4922
407.0160, 266.3477
407.4981, 171.9326
407.9802, 78.27734
408.4623, 6.348633
408.9445, 80.84082
409.4266, 144.9404
409.9087, 200.3408
410.3908, 247.3066
410.8729, 280.1270
411.3550, 297.3857
411.8372, 309.2930
412.3193, 324.8008
412.8014, 341.9746
413.2835, 357.5830
413.7656, 373.7500
414.2477, 381.3350
414.7299, 363.7783
415.2120, 327.5986
415.6941, 292.0771
416.1762, 273.6934
416.6583, 258.4961
417.1404, 234.5420
417.6226, 201.5303
418.1047, 161.5732
418.5868, 116.9619
419.0689, 65.61523
419.5510, 4.117188
420.0331, 78.67383
420.5153, 156.9463
420.9974, 214.3652
421.4795, 258.1152
421.9616, 306.0576
422.4437, 369.7656
422.9258, 434.6953
423.4080, 494.0049
423.8901, 546.0244
424.3722, 600.2744
424.8543, 650.7080
425.3364, 706.6152
425.8185, 777.7002
426.3007, 876.2275
426.7828, 973.3340
427.2649, 1064.417
427.7470, 1150.583
428.2291, 1241.149
428.7112, 1337.954
429.1934, 1435.167
429.6755, 1530.312
430.1576, 1620.756
430.6397, 1715.032
431.1218, 1814.104
431.6039, 1915.826
432.0861, 2018.630
432.5682, 2123.098
433.0503, 2233.036
433.5324, 2351.997
434.0145, 2476.706
434.4966, 2596.205
434.9788, 2711.493
435.4609, 2832.070
435.9430, 2967.716
436.4251, 3114.315
436.9072, 3261.871
437.3893, 3411.215
437.8715, 3560.832
438.3536, 3706.476
438.8357, 3850.053
439.3178, 3997.394
439.7999, 4158.992
440.2820, 4321.537
440.7642, 4471.131
441.2463, 4608.504
441.7284, 4737.271
442.2105, 4862.674
442.6926, 4980.037
443.1747, 5085.014
443.6569, 5182.693
444.1390, 5260.227
444.6211, 5311.951
445.1032, 5340.131
445.5853, 5348.787
446.0674, 5334.135
446.5496, 5304.922
447.0317, 5263.385
447.5138, 5207.887
447.9959, 5146.811
448.4780, 5078.721
448.9601, 5006.518
449.4423, 4931.551
449.9244, 4851.044
450.4065, 4775.135
450.8886, 4705.204
451.3707, 4641.129
451.8528, 4580.854
452.3350, 4523.735
452.8171, 4471.123
453.2992, 4418.650
453.7813, 4365.723
454.2634, 4337.146
454.7455, 4335.477
455.2277, 4349.429
455.7098, 4365.717
456.1919, 4384.402
456.6740, 4412.201
457.1561, 4451.215
457.6382, 4499.262
458.1204, 4546.434
458.6025, 4595.396
459.0846, 4658.334
459.5667, 4754.785
460.0488, 4866.988
460.5309, 4972.654
461.0131, 5067.076
461.4952, 5160.254
461.9773, 5247.494
462.4594, 5338.538
462.9415, 5450.391
463.4236, 5598.488
463.9058, 5757.541
464.3879, 5920.059
464.8700, 6083.257
465.3521, 6253.769
465.8342, 6440.754
466.3163, 6631.486
466.7985, 6817.408
467.2806, 6974.268
467.7627, 7171.232
468.2448, 7419.342
468.7269, 7702.359
469.2090, 8000.117
469.6912, 8306.998
470.1733, 8647.127
470.6554, 9028.684
471.1375, 9449.531
471.6196, 9887.580
472.1017, 10341.78
472.5839, 10820.89
473.0660, 11344.90
473.5481, 11911.33
474.0302, 12498.87
474.5123, 13101.23
474.9944, 13737.47
475.4766, 14440.37
475.9587, 15205.99
476.4408, 16008.93
476.9229, 16832.10
477.4050, 17681.86
477.8871, 18555.20
478.3693, 19454.26
478.8514, 20401.43
479.3335, 21407.84
479.8156, 22478.31
480.2977, 23605.09
480.7798, 24776.54
481.2620, 26023.67
481.7441, 27358.77
482.2262, 28779.73
482.7083, 30283.31
483.1904, 31870.78
483.6725, 33544.70
484.1547, 35296.35
484.6368, 37117.68
485.1189, 39019.03
485.6010, 41026.73
486.0831, 43101.67
486.5652, 45203.72
487.0474, 47338.53
487.5295, 49524.38
488.0116, 51781.25
488.4937, 54047.70
488.9758, 56261.78
489.4579, 58425.07
489.9401, 60545.56
490.4222, 62634.16
490.9043, 64686.23
491.3864, 66761.15
491.8685, 68863.16
492.3506, 71016.57
492.8328, 73233.62
493.3149, 75508.88
493.7970, 77872.84
494.2791, 80338.77
494.7612, 82878.62
495.2433, 85526.19
495.7255, 88253.86
496.2076, 91022.52
496.6897, 93873.45
497.1718, 96710.63
497.6539, 99449.32
498.1360, 102064.5
498.6182, 104521.9
499.1003, 106816.0
499.5824, 108918.7
500.0645, 110785.1
500.5466, 112473.3
501.0287, 113787.3
501.5109, 114702.0
501.9930, 115202.5
502.4751, 115260.1
502.9572, 114815.6
503.4393, 113982.6
503.9214, 112769.8
504.4036, 111189.0
504.8857, 109233.3
505.3678, 106811.3
505.8499, 104133.8
506.3320, 101252.5
506.8141, 98159.50
507.2963, 94991.23
507.7784, 91692.40
508.2605, 88360.87
508.7426, 85011.17
509.2247, 81650.26
509.7068, 78379.94
510.1890, 75236.88
510.6711, 72169.51
511.1532, 69128.64
511.6353, 66117.94
512.1174, 63237.96
512.5995, 60517.79
513.0817, 57936.08
513.5638, 55472.30
514.0459, 53125.50
514.5280, 50888.84
515.0101, 48759.41
515.4922, 46730.05
515.9744, 44821.49
516.4565, 43040.70
516.9386, 41344.63
517.4207, 39718.05
517.9028, 38168.24
518.3849, 36706.83
518.8671, 35365.00
519.3492, 34082.28
519.8313, 32822.46
520.3134, 31598.99
520.7955, 30454.53
521.2776, 29409.12
521.7598, 28408.08
522.2419, 27431.28
522.7240, 26471.01
523.2061, 25548.91
523.6882, 24663.51
524.1703, 23812.59
524.6525, 22994.33
525.1346, 22205.13
525.6167, 21436.85
526.0988, 20699.04
526.5809, 19979.86
527.0630, 19252.68
527.5452, 18525.98
528.0273, 17832.11
528.5094, 17196.01
528.9915, 16595.31
529.4736, 15992.77
529.9557, 15382.58
530.4379, 14797.02
530.9200, 14264.66
531.4021, 13754.03
531.8842, 13230.99
532.3663, 12669.11
532.8484, 12120.15
533.3306, 11608.76
533.8127, 11118.86
534.2948, 10630.06
534.7769, 10122.12
535.2590, 9629.047
535.7411, 9161.635
536.2233, 8721.146
536.7054, 8274.982
537.1875, 7814.982
537.6696, 7373.389
538.1517, 6971.742
538.6339, 6616.771
539.1160, 6257.027
539.5981, 5887.234
540.0802, 5525.273
540.5623, 5187.262
541.0444, 4871.240
541.5266, 4556.895
542.0087, 4230.785
542.4908, 3911.105
542.9729, 3631.861
543.4550, 3388.934
543.9371, 3156.984
544.4193, 2918.355
544.9014, 2684.424
545.3835, 2461.896
545.8656, 2251.084
546.3477, 2056.707
546.8298, 1894.971
547.3120, 1739.551
547.7941, 1569.680
548.2762, 1356.062
548.7583, 1161.531
549.2404, 997.4785
549.7225, 852.8145
550.2047, 708.8047
550.6868, 561.7676
551.1689, 421.6973
551.6510, 290.8691
552.1331, 169.6367
552.6152, 68.32422
553.0974, 8.492188
553.5795, 86.62305
554.0616, 191.3945
554.5437, 314.9297
555.0258, 411.6387
555.5079, 477.8965
555.9901, 526.0078
556.4722, 563.8184
556.9543, 594.2891
557.4364, 625.3164
557.9185, 666.9707
558.4006, 697.4316
558.8828, 696.1152
559.3649, 671.0352
559.8470, 640.5762
560.3291, 614.2207
