##NAMES=Woodhouseite
##RRUFFID=R060520
##IDEAL CHEMISTRY=CaAl_3_(SO_4_)(PO_4_)(OH)_6_
##LOCALITY=Champion mine, Mono County, California, USA
##OWNER=RRUFF
##SOURCE=Michael Scott
##DESCRIPTION=Colorless cubes, with striations that display the rhombohedral symmetry
##STATUS=The identification of this mineral has been confirmed by X-ray diffraction and chemical analysis
##URL=rruff.info/R060520
##MEASURED CHEMISTRY=darker phase: (Ca_0.98_Sr_0.02_)_Σ=1_Al_3.00_[(P_0.53_S_0.47_)_Σ=1_O_4_]_2_((OH)_5.94_(H_2_O)_0.06_)_Σ=6_ ;  lighter phase: (Ca_0.94_Sr_0.06_)_Σ=1_Al_3.00_[(P_0.52_S_0.48_)O_4_]_2_((OH)_5.96_(H_2_O)_0.04_)_Σ=6
89.78320, 0.0000000E+00
90.26532, 0.1462400
90.74744, 1.000977
91.22955, 5.219971
91.71167, 15.56396
92.19379, 41.41028
92.67590, 80.19812
93.15802, 109.6708
93.64014, 108.3179
94.12225, 84.43750
94.60437, 68.66125
95.08649, 66.09058
95.56860, 67.32336
96.05072, 63.25537
96.53284, 60.61768
97.01495, 61.11023
97.49707, 52.57336
97.97919, 38.10901
98.46130, 25.45850
98.94342, 15.71777
99.42554, 8.833740
99.90765, 7.271729
100.3898, 12.59241
100.8719, 19.76917
101.3540, 21.38538
101.8361, 16.55615
102.3182, 10.28369
102.8004, 3.741821
103.2825, 3.970459
103.7646, 7.916260
104.2467, 7.365479
104.7288, 3.541016
105.2109, 0.4094240
105.6931, 2.537720
106.1752, 8.163208
106.6573, 19.81165
107.1394, 40.02197
107.6215, 61.21973
108.1036, 87.98303
108.5858, 117.5344
109.0679, 133.4456
109.5500, 126.5244
110.0321, 113.4635
110.5142, 103.2108
110.9963, 96.53699
111.4785, 91.79529
111.9606, 88.86597
112.4427, 87.70837
112.9248, 88.21411
113.4069, 89.88623
113.8890, 93.34680
114.3712, 99.16479
114.8533, 107.9808
115.3354, 118.5679
115.8175, 132.5652
116.2996, 150.9159
116.7817, 164.0591
117.2639, 164.6263
117.7460, 159.3040
118.2281, 156.5585
118.7102, 164.2744
119.1923, 172.1637
119.6744, 173.1210
120.1566, 165.1339
120.6387, 158.0928
121.1208, 155.3148
121.6029, 155.1991
122.0850, 159.1168
122.5671, 166.9475
123.0493, 177.4135
123.5314, 191.0199
124.0135, 212.4236
124.4956, 230.2717
124.9777, 232.7979
125.4598, 223.2693
125.9420, 211.4064
126.4241, 202.1729
126.9062, 195.0447
127.3883, 189.0432
127.8704, 183.8231
128.3525, 179.7896
128.8347, 177.8484
129.3168, 177.9426
129.7989, 178.9348
130.2810, 180.3752
130.7631, 182.0830
131.2452, 183.5569
131.7274, 184.9452
132.2095, 185.9095
132.6916, 185.5322
133.1737, 183.8020
133.6558, 180.9733
134.1379, 176.5355
134.6201, 170.5444
135.1022, 165.9100
135.5843, 163.3503
136.0664, 162.8461
136.5485, 164.6804
137.0306, 169.4425
137.5128, 175.2317
137.9949, 179.4534
138.4770, 181.4700
138.9591, 185.2870
139.4412, 193.6456
139.9233, 207.1344
140.4055, 215.4825
140.8876, 218.2150
141.3697, 216.1854
141.8518, 210.4156
142.3339, 199.8833
142.8160, 187.9222
143.2982, 175.5941
143.7803, 163.0319
144.2624, 149.9298
144.7445, 136.3601
145.2266, 122.2140
145.7087, 107.5148
146.1909, 90.15039
146.6730, 74.69153
147.1551, 63.07617
147.6372, 58.87781
148.1193, 53.01831
148.6014, 45.16504
149.0836, 35.65930
149.5657, 25.34644
150.0478, 12.89490
150.5299, 0.8948970
151.0120, 9.587158
151.4941, 19.54260
151.9763, 26.79309
152.4584, 30.08374
152.9405, 30.17737
153.4226, 30.95093
153.9047, 34.11755
154.3868, 37.16333
154.8690, 38.72656
155.3511, 38.93237
155.8332, 37.28113
156.3153, 32.59888
156.7974, 25.40002
157.2795, 19.49536
157.7617, 18.56946
158.2438, 17.37439
158.7259, 12.28979
159.2080, 2.297974
159.6901, 11.38123
160.1722, 28.78516
160.6544, 49.76025
161.1365, 72.85950
161.6186, 97.74829
162.1007, 124.8866
162.5828, 155.3425
163.0649, 189.1819
163.5471, 226.0604
164.0292, 267.4390
164.5113, 313.2410
164.9934, 357.5034
165.4755, 394.9202
165.9576, 429.8325
166.4398, 467.0574
166.9219, 507.0349
167.4040, 551.4766
167.8861, 601.3975
168.3682, 657.1516
168.8503, 716.5337
169.3325, 776.4742
169.8146, 839.5819
170.2967, 909.0262
170.7788, 985.2292
171.2609, 1069.989
171.7430, 1163.663
172.2252, 1266.648
172.7073, 1379.160
173.1894, 1500.089
173.6715, 1631.769
174.1536, 1774.485
174.6357, 1930.901
175.1179, 2099.955
175.6000, 2283.097
176.0821, 2479.975
176.5642, 2683.542
177.0463, 2894.373
177.5284, 3108.461
178.0106, 3309.943
178.4927, 3503.011
178.9748, 3676.322
179.4569, 3809.760
179.9390, 3904.924
180.4211, 3952.437
180.9033, 3942.538
181.3854, 3876.131
181.8675, 3759.539
182.3496, 3580.454
182.8317, 3355.127
183.3138, 3106.846
183.7960, 2834.643
184.2781, 2555.809
184.7602, 2293.534
185.2423, 2046.335
185.7244, 1822.776
186.2065, 1626.173
186.6887, 1455.794
187.1708, 1306.178
187.6529, 1178.329
188.1350, 1068.134
188.6171, 974.0194
189.0992, 895.0281
189.5814, 825.0720
190.0635, 760.9062
190.5456, 701.8853
191.0277, 650.0724
191.5098, 606.5952
191.9919, 568.3459
192.4741, 529.5042
192.9562, 490.0522
193.4383, 453.4404
193.9204, 423.0425
194.4025, 398.5895
194.8846, 375.5635
195.3668, 353.5378
195.8489, 332.5449
196.3310, 312.6870
196.8131, 293.9725
197.2952, 276.3759
197.7773, 259.6705
198.2595, 243.9227
198.7416, 229.3862
199.2237, 216.5001
199.7058, 204.6873
200.1879, 192.4307
200.6700, 179.4691
201.1522, 166.8462
201.6343, 155.1132
202.1164, 144.2629
202.5985, 134.5359
203.0806, 126.2101
203.5627, 118.9729
204.0449, 111.8997
204.5270, 104.8815
205.0091, 98.33264
205.4912, 92.27869
205.9733, 86.51196
206.4554, 82.44141
206.9376, 80.26404
207.4197, 79.88843
207.9018, 81.09985
208.3839, 84.16089
208.8660, 87.85181
209.3481, 91.31775
209.8303, 94.44873
210.3124, 98.68079
210.7945, 104.5002
211.2766, 111.6165
211.7587, 119.1578
212.2408, 127.2382
212.7230, 135.6838
213.2051, 144.5841
213.6872, 154.1639
214.1693, 163.8783
214.6514, 173.3170
215.1335, 182.7949
215.6157, 193.4894
216.0978, 205.5437
216.5799, 218.7742
217.0620, 233.3374
217.5441, 249.3931
218.0262, 265.2358
218.5084, 280.1917
218.9905, 294.9934
219.4726, 312.5374
219.9547, 334.1973
220.4368, 356.7869
220.9189, 377.8132
221.4011, 396.3667
221.8832, 416.3389
222.3653, 438.1731
222.8474, 461.7061
223.3295, 487.5359
223.8116, 515.9492
224.2938, 545.2983
224.7759, 574.3997
225.2580, 602.1924
225.7401, 631.7734
226.2222, 664.0469
226.7043, 698.2371
227.1865, 732.5793
227.6686, 765.4155
228.1507, 799.7800
228.6328, 837.1870
229.1149, 878.5986
229.5970, 920.3823
230.0792, 960.9443
230.5613, 1001.734
231.0434, 1047.053
231.5255, 1096.933
232.0076, 1150.477
232.4897, 1206.808
232.9719, 1266.330
233.4540, 1327.598
233.9361, 1390.943
234.4182, 1456.358
234.9003, 1524.823
235.3824, 1597.382
235.8646, 1671.545
236.3467, 1745.661
236.8288, 1817.396
237.3109, 1894.251
237.7930, 1976.543
238.2751, 2064.276
238.7573, 2155.048
239.2394, 2248.958
239.7215, 2345.833
240.2036, 2446.596
240.6857, 2552.533
241.1678, 2659.162
241.6500, 2765.721
242.1321, 2872.690
242.6142, 2984.093
243.0963, 3103.705
243.5784, 3221.108
244.0605, 3331.656
244.5427, 3437.461
245.0248, 3533.389
245.5069, 3620.829
245.9890, 3697.732
246.4711, 3758.880
246.9532, 3804.698
247.4354, 3835.600
247.9175, 3850.958
248.3996, 3849.535
248.8817, 3837.439
249.3638, 3815.793
249.8459, 3782.947
250.3281, 3735.262
250.8102, 3669.290
251.2923, 3594.749
251.7744, 3513.335
252.2565, 3425.072
252.7386, 3333.019
253.2208, 3236.528
253.7029, 3137.018
254.1850, 3034.301
254.6671, 2926.129
255.1492, 2818.053
255.6313, 2712.085
256.1135, 2608.532
256.5956, 2507.473
257.0777, 2409.974
257.5598, 2314.935
258.0419, 2221.064
258.5240, 2128.837
259.0062, 2038.738
259.4883, 1949.554
259.9704, 1862.555
260.4525, 1780.744
260.9346, 1706.012
261.4167, 1635.818
261.8989, 1566.848
262.3810, 1498.212
262.8631, 1434.529
263.3452, 1378.057
263.8273, 1328.107
264.3094, 1282.616
264.7916, 1241.602
265.2737, 1203.381
265.7558, 1164.911
266.2379, 1124.733
266.7200, 1090.606
267.2021, 1065.442
267.6843, 1048.294
268.1664, 1028.654
268.6485, 1005.231
269.1306, 981.4790
269.6127, 960.8286
270.0948, 943.9868
270.5770, 927.6737
271.0591, 911.6445
271.5412, 895.7323
272.0233, 878.9438
272.5054, 861.3369
272.9875, 843.2620
273.4697, 825.3247
273.9518, 807.5886
274.4339, 788.3086
274.9160, 766.6113
275.3981, 743.7219
275.8802, 722.7471
276.3624, 704.0928
276.8445, 687.0756
277.3266, 672.1873
277.8087, 659.7205
278.2908, 645.0151
278.7729, 627.1898
279.2551, 607.5756
279.7372, 590.1338
280.2193, 575.3333
280.7014, 559.2920
281.1835, 539.7351
281.6656, 516.6952
282.1478, 491.8362
282.6299, 464.8914
283.1120, 436.8215
283.5941, 408.7024
284.0762, 380.3552
284.5583, 353.4626
285.0405, 329.2087
285.5226, 307.2585
286.0047, 283.9948
286.4868, 258.8308
286.9689, 234.2343
287.4510, 213.8801
287.9332, 197.6130
288.4153, 182.2438
288.8974, 166.9574
289.3795, 151.7324
289.8616, 136.7255
290.3438, 121.8186
290.8259, 107.9272
291.3080, 96.02173
291.7901, 86.09033
292.2722, 77.48267
292.7543, 70.38794
293.2365, 64.38818
293.7186, 58.99841
294.2007, 54.27600
294.6828, 49.01270
295.1649, 41.15527
295.6470, 31.73853
296.1292, 23.99829
296.6113, 19.17407
297.0934, 16.11084
297.5755, 13.25146
298.0576, 10.57397
298.5397, 7.883545
299.0219, 4.659912
299.5040, 1.334229
299.9861, 0.9660640
300.4682, 1.599609
300.9503, 1.963135
301.4324, 4.399902
301.9146, 8.278809
302.3967, 11.04028
302.8788, 9.948975
303.3609, 7.082275
303.8430, 5.615479
304.3251, 6.255371
304.8073, 7.269531
305.2894, 7.247803
305.7715, 6.389160
306.2536, 5.123779
306.7357, 2.825195
307.2178, 0.7353520
307.7000, 0.5063480
308.1821, 2.464600
308.6642, 4.641846
309.1463, 5.370117
309.6284, 5.438721
310.1105, 6.055664
310.5927, 8.848145
311.0748, 11.59912
311.5569, 12.28149
312.0390, 10.87598
312.5211, 9.929199
313.0032, 11.12500
313.4854, 13.37817
313.9675, 15.54761
314.4496, 17.02441
314.9317, 18.48120
315.4138, 20.45190
315.8959, 22.77051
316.3781, 24.51807
316.8602, 24.18774
317.3423, 23.74146
317.8244, 24.75269
318.3065, 29.27466
318.7886, 32.84717
319.2708, 33.22388
319.7529, 31.42700
320.2350, 30.31079
320.7171, 32.41577
321.1992, 34.20239
321.6813, 33.77393
322.1635, 29.93091
322.6456, 26.13965
323.1277, 22.62769
323.6098, 19.67212
324.0919, 17.70361
324.5740, 18.81909
325.0562, 19.15845
325.5383, 16.94092
326.0204, 10.96533
326.5025, 7.043213
326.9846, 6.891602
327.4667, 8.396729
327.9489, 9.289063
328.4310, 9.940186
328.9131, 9.444092
329.3952, 7.237305
329.8773, 3.249268
330.3594, 0.3452150
330.8416, 3.019043
331.3237, 5.700195
331.8058, 9.092529
332.2879, 14.07153
332.7700, 18.19727
333.2521, 20.53003
333.7343, 21.76660
334.2164, 25.50562
334.6985, 32.73315
335.1806, 40.75732
335.6627, 48.15063
336.1448, 54.43359
336.6270, 61.22217
337.1091, 68.52734
337.5912, 76.26294
338.0733, 84.46973
338.5554, 93.09009
339.0375, 102.0894
339.5197, 112.0347
340.0018, 123.0046
340.4839, 131.3550
340.9660, 136.2417
341.4481, 139.8972
341.9302, 144.8816
342.4124, 151.3232
342.8945, 158.1582
343.3766, 165.5010
343.8587, 172.9731
344.3408, 179.1755
344.8229, 183.9451
345.3051, 188.2068
345.7872, 192.4731
346.2693, 196.8008
346.7514, 201.8342
347.2335, 207.5352
347.7156, 214.1526
348.1978, 222.3035
348.6799, 231.9180
349.1620, 241.8711
349.6441, 251.6760
350.1262, 261.2859
350.6083, 270.3000
351.0905, 278.5906
351.5726, 287.1011
352.0547, 296.7603
352.5368, 307.5413
353.0189, 319.3638
353.5010, 332.8540
353.9832, 346.9824
354.4653, 360.2092
354.9474, 372.5559
355.4295, 385.3811
355.9116, 399.4451
356.3937, 414.8276
356.8759, 431.3716
357.3580, 450.6272
357.8401, 469.8811
358.3222, 486.5559
358.8043, 501.3718
359.2864, 517.2522
359.7686, 535.6699
360.2507, 556.0178
360.7328, 578.0222
361.2149, 603.7583
361.6970, 627.9756
362.1791, 648.5664
362.6613, 665.9314
363.1434, 681.1523
363.6255, 695.1030
364.1076, 706.5947
364.5897, 715.7065
365.0718, 722.9578
365.5540, 724.7817
366.0361, 719.6016
366.5182, 708.7908
367.0003, 694.1196
367.4824, 673.4385
367.9645, 651.4341
368.4467, 629.4248
368.9288, 607.8923
369.4109, 582.8640
369.8930, 552.0503
370.3751, 519.8086
370.8572, 488.8076
371.3394, 459.9585
371.8215, 431.1663
372.3036, 401.9185
372.7857, 372.6746
373.2678, 344.6765
373.7499, 317.4854
374.2321, 291.8313
374.7142, 268.4910
375.1963, 247.6497
375.6784, 227.5125
376.1605, 207.5911
376.6426, 188.6240
377.1248, 172.7561
377.6069, 160.4536
378.0890, 148.5564
378.5711, 135.8057
379.0532, 122.3774
379.5353, 110.1677
380.0175, 99.47925
380.4996, 89.51196
380.9817, 78.71606
381.4638, 67.46558
381.9459, 59.10889
382.4280, 54.85425
382.9102, 52.81665
383.3923, 49.30664
383.8744, 44.72437
384.3565, 40.99829
384.8386, 39.17212
385.3207, 38.81250
385.8029, 38.90967
386.2850, 39.13379
386.7671, 41.31812
387.2492, 47.93164
387.7313, 58.06934
388.2134, 69.39258
388.6956, 78.61841
389.1777, 89.72949
389.6598, 107.4153
390.1419, 131.4104
390.6240, 156.8726
391.1061, 180.2290
391.5883, 204.1108
392.0704, 231.5669
392.5525, 265.7817
393.0346, 300.4578
393.5167, 331.7468
393.9988, 361.5188
394.4810, 395.3418
394.9631, 436.2595
395.4452, 480.8650
395.9273, 527.5095
396.4094, 575.8323
396.8915, 626.7461
397.3737, 679.3447
397.8558, 734.9482
398.3379, 795.1748
398.8200, 860.8535
399.3021, 930.3809
399.7842, 1003.585
400.2664, 1080.375
400.7485, 1160.879
401.2306, 1244.948
401.7127, 1331.735
402.1948, 1421.057
402.6769, 1515.721
403.1591, 1606.775
403.6412, 1694.260
404.1233, 1777.325
404.6054, 1857.914
405.0875, 1938.287
405.5696, 2007.330
406.0518, 2061.108
406.5339, 2099.668
407.0160, 2123.267
407.4981, 2132.418
407.9802, 2124.913
408.4623, 2098.245
408.9445, 2052.268
409.4266, 1987.135
409.9087, 1900.949
410.3908, 1797.750
410.8729, 1684.209
411.3550, 1560.115
411.8372, 1434.546
412.3193, 1309.144
412.8014, 1186.254
413.2835, 1069.898
413.7656, 959.4048
414.2477, 856.7781
414.7299, 765.1606
415.2120, 683.4236
415.6941, 611.4446
416.1762, 550.1602
416.6583, 496.8315
417.1404, 449.2087
417.6226, 406.7898
418.1047, 370.1331
418.5868, 340.3782
419.0689, 315.7288
419.5510, 294.1101
420.0331, 276.0305
420.5153, 259.7629
420.9974, 245.0510
421.4795, 231.8428
421.9616, 220.5710
422.4437, 212.0867
422.9258, 204.8745
423.4080, 198.3655
423.8901, 192.4436
424.3722, 187.5159
424.8543, 182.4944
425.3364, 179.1287
425.8185, 179.2974
426.3007, 186.1169
426.7828, 191.9839
427.2649, 195.3735
427.7470, 196.7529
428.2291, 199.3489
428.7112, 203.4836
429.1934, 208.1846
429.6755, 213.0916
430.1576, 218.2124
430.6397, 222.9775
431.1218, 226.9316
431.6039, 231.1438
432.0861, 238.2170
432.5682, 248.4370
433.0503, 256.8240
433.5324, 260.4182
434.0145, 261.1794
434.4966, 266.9246
434.9788, 277.8564
435.4609, 288.4956
435.9430, 293.0212
436.4251, 293.6885
436.9072, 296.9385
437.3893, 304.5271
437.8715, 313.5654
438.3536, 320.9851
438.8357, 327.1921
439.3178, 333.3240
439.7999, 340.5674
440.2820, 347.5930
440.7642, 352.7839
441.2463, 356.0518
441.7284, 359.2478
442.2105, 363.9316
442.6926, 368.7456
443.1747, 372.3767
443.6569, 373.8013
444.1390, 374.8625
444.6211, 375.7861
445.1032, 376.9290
445.5853, 379.2844
446.0674, 384.6106
446.5496, 389.5593
447.0317, 392.6035
447.5138, 392.8918
447.9959, 393.9089
448.4780, 395.9363
448.9601, 398.5112
449.4423, 401.0825
449.9244, 403.2114
450.4065, 406.0667
450.8886, 410.2546
451.3707, 415.2278
451.8528, 418.5471
452.3350, 419.8420
452.8171, 420.1013
453.2992, 419.1511
453.7813, 416.9539
454.2634, 416.7043
454.7455, 418.6533
455.2277, 421.5225
455.7098, 423.9846
456.1919, 425.6616
456.6740, 425.5454
457.1561, 422.8872
457.6382, 419.2363
458.1204, 416.6592
458.6025, 415.2151
459.0846, 415.4539
459.5667, 417.9316
460.0488, 422.2759
460.5309, 428.3667
461.0131, 436.5286
461.4952, 444.8452
461.9773, 450.1316
462.4594, 455.0469
462.9415, 463.5715
463.4236, 478.0940
463.9058, 495.5764
464.3879, 516.3840
464.8700, 539.7664
465.3521, 561.5947
465.8342, 578.1348
466.3163, 595.0083
466.7985, 615.3799
467.2806, 640.6560
467.7627, 667.2385
468.2448, 694.7314
468.7269, 723.3716
469.2090, 753.9529
469.6912, 787.8376
470.1733, 821.7041
470.6554, 854.5752
471.1375, 886.6621
471.6196, 920.1592
472.1017, 955.4729
472.5839, 991.1196
473.0660, 1026.745
473.5481, 1062.201
474.0302, 1098.366
474.5123, 1135.400
474.9944, 1173.005
475.4766, 1211.434
475.9587, 1250.415
476.4408, 1288.089
476.9229, 1322.637
477.4050, 1355.787
477.8871, 1391.017
478.3693, 1427.954
478.8514, 1462.849
479.3335, 1492.684
479.8156, 1519.285
480.2977, 1544.832
480.7798, 1570.183
481.2620, 1592.568
481.7441, 1611.735
482.2262, 1626.477
482.7083, 1635.022
483.1904, 1636.733
483.6725, 1632.023
484.1547, 1622.048
484.6368, 1606.520
485.1189, 1581.209
485.6010, 1544.479
486.0831, 1498.141
486.5652, 1443.632
487.0474, 1379.435
487.5295, 1309.078
488.0116, 1230.868
488.4937, 1148.587
488.9758, 1066.337
489.4579, 983.4814
489.9401, 901.7764
490.4222, 819.8025
490.9043, 739.3044
491.3864, 665.1013
491.8685, 597.1238
492.3506, 534.7002
492.8328, 477.7683
493.3149, 426.0281
493.7970, 377.0845
494.2791, 330.3821
494.7612, 288.2952
495.2433, 253.1816
495.7255, 224.0020
496.2076, 198.1362
496.6897, 176.3621
497.1718, 156.0420
497.6539, 134.5361
498.1360, 112.4624
498.6182, 91.76782
499.1003, 74.56641
499.5824, 58.60889
500.0645, 42.18555
500.5466, 23.96704
501.0287, 8.954590
501.5109, 1.116455
501.9930, 3.981201
502.4751, 10.64551
502.9572, 21.92578
503.4393, 31.84912
503.9214, 39.59082
504.4036, 45.44019
504.8857, 50.61108
505.3678, 55.15674
505.8499, 59.06006
506.3320, 62.48242
506.8141, 65.48950
507.2963, 66.75464
507.7784, 66.03320
508.2605, 64.23511
508.7426, 62.32544
509.2247, 60.26050
509.7068, 57.27783
510.1890, 53.01685
510.6711, 48.22095
511.1532, 44.37793
511.6353, 41.24854
512.1174, 37.73853
512.5995, 34.51514
513.0817, 29.93164
513.5638, 21.12427
514.0459, 8.237061
514.5280, 4.757324
515.0101, 15.20264
515.4922, 24.71655
515.9744, 34.39917
516.4565, 43.37720
516.9386, 54.94775
517.4207, 71.46265
517.9028, 91.03418
518.3849, 110.5586
518.8671, 126.8782
519.3492, 146.0542
519.8313, 170.4602
520.3134, 199.5112
520.7955, 227.7559
521.2776, 254.4431
521.7598, 281.5005
522.2419, 309.4729
522.7240, 338.2686
523.2061, 368.6829
523.6882, 400.2732
524.1703, 434.7366
524.6525, 473.8264
525.1346, 517.7190
525.6167, 567.3452
526.0988, 622.9861
526.5809, 683.7310
527.0630, 747.7344
527.5452, 814.9885
528.0273, 886.3721
528.5094, 962.7148
528.9915, 1043.808
529.4736, 1132.092
529.9557, 1228.317
530.4379, 1324.315
530.9200, 1421.284
531.4021, 1513.836
531.8842, 1597.564
532.3663, 1676.700
532.8484, 1739.065
533.3306, 1786.279
533.8127, 1814.006
534.2948, 1811.601
534.7769, 1776.563
535.2590, 1713.096
535.7411, 1617.745
536.2233, 1491.744
536.7054, 1355.225
537.1875, 1203.963
537.6696, 1052.740
538.1517, 906.7292
538.6339, 766.4016
539.1160, 641.0791
539.5981, 531.5251
540.0802, 438.3105
540.5623, 361.2402
541.0444, 299.6643
541.5266, 248.1169
542.0087, 206.4888
542.4908, 172.1289
542.9729, 142.9949
543.4550, 118.9045
543.9371, 98.16772
544.4193, 79.29980
544.9014, 63.53003
545.3835, 52.86035
545.8656, 47.68140
546.3477, 42.43262
546.8298, 33.56079
547.3120, 24.25708
547.7941, 17.23047
548.2762, 14.70923
548.7583, 11.89966
549.2404, 7.776611
549.7225, 3.326904
550.2047, 0.3168950
550.6868, 0.4912110
551.1689, 1.394043
551.6510, 3.307129
552.1331, 5.844727
552.6152, 6.149902
553.0974, 3.822998
553.5795, 1.091309
554.0616, 0.4860840
554.5437, 1.195068
555.0258, 2.597168
555.5079, 4.885254
