##NAMES=Zincolibethenite
##RRUFFID=R060763
##IDEAL CHEMISTRY=Cu^2+^Zn^2+^P^5+^O_4_(OH)
##LOCALITY=Kabwe mine, Kabwe, Zambia
##OWNER=RRUFF
##SOURCE=Michael Scott
##DESCRIPTION=Pale greenish-blue botryoidal groups of radiating crystals, associated with colorless tarbuttite
##STATUS=The identification of this mineral has been confirmed only by single crystal X-ray diffraction.
##URL=rruff.info/R060763
89.78320, 0.0000000E+00
90.26532, 5.507568
90.74744, 15.42896
91.22955, 27.63403
91.71167, 42.57227
92.19379, 60.82690
92.67590, 82.15942
93.15802, 100.4375
93.64014, 113.3501
94.12225, 122.4817
94.60437, 127.6438
95.08649, 127.3213
95.56860, 120.2825
96.05072, 110.5779
96.53284, 102.8870
97.01495, 100.0359
97.49707, 100.1987
97.97919, 106.3813
98.46130, 104.1653
98.94342, 90.41748
99.42554, 74.59277
99.90765, 67.72485
100.3898, 72.65820
100.8719, 78.77881
101.3540, 73.80688
101.8361, 56.10522
102.3182, 37.73608
102.8004, 22.64453
103.2825, 11.39575
103.7646, 3.072021
104.2467, 1.441162
104.7288, 3.394043
105.2109, 6.208740
105.6931, 12.55811
106.1752, 15.74634
106.6573, 12.55566
107.1394, 0.8173830
107.6215, 14.17676
108.1036, 31.10327
108.5858, 49.49194
109.0679, 56.54907
109.5500, 41.42969
110.0321, 23.43481
110.5142, 12.89258
110.9963, 14.80298
111.4785, 18.37305
111.9606, 23.27710
112.4427, 29.42944
112.9248, 34.55640
113.4069, 37.60449
113.8890, 40.05542
114.3712, 43.08862
114.8533, 46.55298
115.3354, 50.74902
115.8175, 56.77661
116.2996, 65.14771
116.7817, 70.89136
117.2639, 70.08911
117.7460, 66.32617
118.2281, 64.14185
118.7102, 66.30371
119.1923, 69.76392
119.6744, 72.01001
120.1566, 72.03003
120.6387, 74.10400
121.1208, 82.48145
121.6029, 94.76440
122.0850, 106.0815
122.5671, 109.5444
123.0493, 112.6152
123.5314, 124.6023
124.0135, 150.3135
124.4956, 176.6760
124.9777, 188.8242
125.4598, 189.8191
125.9420, 191.1030
126.4241, 201.7881
126.9062, 217.5630
127.3883, 230.4536
127.8704, 238.0620
128.3525, 243.0654
128.8347, 249.6895
129.3168, 257.8286
129.7989, 265.0957
130.2810, 269.8640
130.7631, 272.2578
131.2452, 273.1021
131.7274, 272.6638
132.2095, 270.8147
132.6916, 266.2112
133.1737, 258.4099
133.6558, 251.1392
134.1379, 248.1416
134.6201, 249.3984
135.1022, 252.1562
135.5843, 255.7942
136.0664, 260.3047
136.5485, 265.5596
137.0306, 273.5059
137.5128, 283.1982
137.9949, 293.2483
138.4770, 303.8792
138.9591, 314.5701
139.4412, 326.0098
139.9233, 338.1985
140.4055, 348.8101
140.8876, 359.4585
141.3697, 369.6948
141.8518, 377.9565
142.3339, 381.8784
142.8160, 388.8887
143.2982, 401.6528
143.7803, 420.4817
144.2624, 443.9631
144.7445, 473.8979
145.2266, 508.0051
145.7087, 540.0757
146.1909, 573.8435
146.6730, 601.7051
147.1551, 621.6379
147.6372, 639.2397
148.1193, 641.0752
148.6014, 623.0200
149.0836, 588.7441
149.5657, 549.7771
150.0478, 504.4199
150.5299, 456.6047
151.0120, 407.6594
151.4941, 349.7429
151.9763, 300.3730
152.4584, 261.4783
152.9405, 231.9824
153.4226, 205.4636
153.9047, 182.5012
154.3868, 161.6621
154.8690, 142.1489
155.3511, 120.5017
155.8332, 103.7080
156.3153, 95.57935
156.7974, 94.97485
157.2795, 92.59058
157.7617, 84.06128
158.2438, 74.42017
158.7259, 67.29419
159.2080, 65.14648
159.6901, 63.98584
160.1722, 62.64551
160.6544, 61.13525
161.1365, 60.16235
161.6186, 59.71313
162.1007, 59.94263
162.5828, 61.20898
163.0649, 65.64526
163.5471, 68.99756
164.0292, 68.86377
164.5113, 65.52832
164.9934, 63.52954
165.4755, 65.39868
165.9576, 68.73315
166.4398, 70.60376
166.9219, 67.06787
167.4040, 63.50513
167.8861, 64.26001
168.3682, 69.80908
168.8503, 75.16577
169.3325, 76.01025
169.8146, 74.65234
170.2967, 74.77344
170.7788, 78.60596
171.2609, 84.32373
171.7430, 90.71167
172.2252, 97.90283
172.7073, 104.4365
173.1894, 107.7268
173.6715, 109.4568
174.1536, 113.0798
174.6357, 123.1228
175.1179, 134.9360
175.6000, 142.7244
176.0821, 145.5808
176.5642, 146.3191
177.0463, 148.4104
177.5284, 150.8035
178.0106, 150.2214
178.4927, 144.5527
178.9748, 134.8835
179.4569, 122.9714
179.9390, 108.8423
180.4211, 92.82495
180.9033, 73.33496
181.3854, 51.30151
181.8675, 31.51660
182.3496, 17.45557
182.8317, 7.613037
183.3138, 2.592529
183.7960, 14.10303
184.2781, 24.52734
184.7602, 29.63867
185.2423, 29.91382
185.7244, 29.11279
186.2065, 29.95142
186.6887, 31.69214
187.1708, 31.19629
187.6529, 27.69702
188.1350, 22.86279
188.6171, 20.38135
189.0992, 20.11768
189.5814, 18.37085
190.0635, 11.86499
190.5456, 1.192383
191.0277, 8.551270
191.5098, 16.66821
191.9919, 23.95972
192.4741, 31.74512
192.9562, 39.99683
193.4383, 48.44946
193.9204, 55.92114
194.4025, 62.62671
194.8846, 72.67383
195.3668, 87.33203
195.8489, 104.6797
196.3310, 120.1816
196.8131, 133.6553
197.2952, 146.5371
197.7773, 159.7932
198.2595, 173.3591
198.7416, 187.5693
199.2237, 202.6238
199.7058, 218.0442
200.1879, 231.5735
200.6700, 242.7273
201.1522, 255.0081
201.6343, 271.2803
202.1164, 291.9331
202.5985, 313.0964
203.0806, 334.6133
203.5627, 355.9680
204.0449, 373.8335
204.5270, 386.3745
205.0091, 401.3857
205.4912, 426.2922
205.9733, 463.5481
206.4554, 495.4771
206.9376, 518.8479
207.4197, 535.7029
207.9018, 554.2703
208.3839, 574.3110
208.8660, 596.8374
209.3481, 623.1138
209.8303, 654.5278
210.3124, 684.4065
210.7945, 712.3540
211.2766, 738.1421
211.7587, 762.4253
212.2408, 786.4917
212.7230, 806.4773
213.2051, 819.7034
213.6872, 825.0244
214.1693, 827.3823
214.6514, 827.2581
215.1335, 824.4221
215.6157, 817.8855
216.0978, 807.1284
216.5799, 793.3289
217.0620, 777.4290
217.5441, 760.1455
218.0262, 737.9353
218.5084, 708.5449
218.9905, 673.5171
219.4726, 642.4360
219.9547, 616.6248
220.4368, 591.8162
220.9189, 565.1743
221.4011, 534.7197
221.8832, 507.5242
222.3653, 485.1116
222.8474, 466.4705
223.3295, 445.6580
223.8116, 421.5500
224.2938, 397.7507
224.7759, 376.4600
225.2580, 358.3660
225.7401, 341.4192
226.2222, 325.3418
226.7043, 310.2424
227.1865, 296.0759
227.6686, 283.1091
228.1507, 270.9468
228.6328, 259.7463
229.1149, 250.5349
229.5970, 239.8225
230.0792, 226.8137
230.5613, 212.1824
231.0434, 198.6948
231.5255, 186.0500
232.0076, 175.2917
232.4897, 167.2849
232.9719, 163.0042
233.4540, 159.5823
233.9361, 157.7542
234.4182, 156.6970
234.9003, 153.2229
235.3824, 145.5635
235.8646, 138.0154
236.3467, 132.2991
236.8288, 127.2646
237.3109, 126.9028
237.7930, 133.7842
238.2751, 144.9565
238.7573, 150.7808
239.2394, 147.2505
239.7215, 144.0000
240.2036, 145.6155
240.6857, 154.7532
241.1678, 162.4517
241.6500, 167.9043
242.1321, 171.5693
242.6142, 175.0972
243.0963, 179.1089
243.5784, 182.7117
244.0605, 185.3225
244.5427, 186.6665
245.0248, 187.9011
245.5069, 189.7795
245.9890, 191.5940
246.4711, 191.6589
246.9532, 190.5300
247.4354, 186.6558
247.9175, 179.0166
248.3996, 165.7944
248.8817, 155.0645
249.3638, 147.5969
249.8459, 142.1553
250.3281, 136.7712
250.8102, 132.6694
251.2923, 126.5505
251.7744, 116.5183
252.2565, 101.0823
252.7386, 88.52759
253.2208, 79.63770
253.7029, 73.06641
254.1850, 66.37451
254.6671, 58.41211
255.1492, 52.48071
255.6313, 49.70728
256.1135, 50.29810
256.5956, 52.50366
257.0777, 57.49707
257.5598, 63.15137
258.0419, 65.83545
258.5240, 63.97681
259.0062, 61.74390
259.4883, 59.81787
259.9704, 58.08252
260.4525, 60.21338
260.9346, 67.62598
261.4167, 76.93750
261.8989, 84.31250
262.3810, 89.10571
262.8631, 93.47021
263.3452, 97.79370
263.8273, 102.1487
264.3094, 105.8965
264.7916, 108.8457
265.2737, 111.8123
265.7558, 115.6936
266.2379, 120.6389
266.7200, 126.1794
267.2021, 132.7761
267.6843, 140.2041
268.1664, 145.6323
268.6485, 147.9128
269.1306, 150.4651
269.6127, 156.8311
270.0948, 168.2468
270.5770, 177.2983
271.0591, 181.6494
271.5412, 182.5896
272.0233, 186.8066
272.5054, 194.7180
272.9875, 204.3767
273.4697, 214.6938
273.9518, 225.9407
274.4339, 236.5005
274.9160, 245.7698
275.3981, 254.4436
275.8802, 264.9985
276.3624, 277.5320
276.8445, 290.9983
277.3266, 304.3633
277.8087, 317.4954
278.2908, 333.0349
278.7729, 351.5400
279.2551, 372.2056
279.7372, 393.5505
280.2193, 416.0952
280.7014, 436.5227
281.1835, 451.4529
281.6656, 461.0325
282.1478, 475.4817
282.6299, 495.9890
283.1120, 519.9224
283.5941, 543.9021
284.0762, 568.1272
284.5583, 590.2124
285.0405, 607.3682
285.5226, 620.5068
286.0047, 639.3113
286.4868, 665.2170
286.9689, 692.1619
287.4510, 711.0354
287.9332, 722.2078
288.4153, 733.6814
288.8974, 749.6807
289.3795, 768.3730
289.8616, 782.2432
290.3438, 791.0464
290.8259, 796.6184
291.3080, 801.2554
291.7901, 804.5640
292.2722, 804.4233
292.7543, 799.2581
293.2365, 790.5864
293.7186, 782.1157
294.2007, 773.9377
294.6828, 764.3430
295.1649, 752.3364
295.6470, 737.8347
296.1292, 719.9973
296.6113, 698.1765
297.0934, 673.6768
297.5755, 647.0510
298.0576, 618.4983
298.5397, 591.3298
299.0219, 569.8970
299.5040, 551.1895
299.9861, 528.5591
300.4682, 499.6211
300.9503, 468.8157
301.4324, 441.0679
301.9146, 416.0369
302.3967, 391.0496
302.8788, 362.9060
303.3609, 334.4648
303.8430, 311.4351
304.3251, 295.9971
304.8073, 280.6125
305.2894, 256.8413
305.7715, 227.4810
306.2536, 198.7329
306.7357, 172.5098
307.2178, 149.2812
307.7000, 130.3394
308.1821, 115.9368
308.6642, 103.6406
309.1463, 92.53320
309.6284, 82.21118
310.1105, 71.91821
310.5927, 60.64087
311.0748, 49.90234
311.5569, 40.89233
312.0390, 33.64111
312.5211, 26.89136
313.0032, 20.28906
313.4854, 13.65747
313.9675, 6.885010
314.4496, 2.597900
314.9317, 9.842529
315.4138, 10.70386
315.8959, 6.276367
316.3781, 3.458740
316.8602, 6.518066
317.3423, 11.55908
317.8244, 15.80029
318.3065, 18.56616
318.7886, 20.52905
319.2708, 22.09473
319.7529, 23.05420
320.2350, 22.78589
320.7171, 20.47070
321.1992, 17.43555
321.6813, 14.28564
322.1635, 11.02490
322.6456, 7.962646
323.1277, 5.414551
323.6098, 3.119385
324.0919, 0.6115720
324.5740, 1.232910
325.0562, 4.082520
325.5383, 9.188721
326.0204, 17.80640
326.5025, 23.72461
326.9846, 23.96729
327.4667, 22.41406
327.9489, 23.21973
328.4310, 27.84937
328.9131, 33.35425
329.3952, 39.35547
329.8773, 45.87183
330.3594, 53.48218
330.8416, 63.20532
331.3237, 73.09277
331.8058, 81.88721
332.2879, 89.73706
332.7700, 95.90576
333.2521, 98.21167
333.7343, 98.49536
334.2164, 106.3604
334.6985, 125.6130
335.1806, 146.5273
335.6627, 163.8235
336.1448, 175.9404
336.6270, 187.6482
337.1091, 198.7708
337.5912, 209.8127
338.0733, 221.7534
338.5554, 234.4978
339.0375, 248.3083
339.5197, 264.0547
340.0018, 281.7524
340.4839, 295.8196
340.9660, 304.9653
341.4481, 312.9319
341.9302, 323.7820
342.4124, 337.5305
342.8945, 352.8381
343.3766, 371.0823
343.8587, 390.8555
344.3408, 405.1699
344.8229, 413.2361
345.3051, 420.1084
345.7872, 430.4214
346.2693, 443.7180
346.7514, 457.6165
347.2335, 471.9937
347.7156, 486.2583
348.1978, 500.1387
348.6799, 513.4021
349.1620, 522.6514
349.6441, 522.8757
350.1262, 517.5356
350.6083, 515.8052
351.0905, 519.9812
351.5726, 523.6509
352.0547, 518.5168
352.5368, 506.3809
353.0189, 492.9707
353.5010, 481.7100
353.9832, 470.6746
354.4653, 458.1123
354.9474, 443.7844
355.4295, 426.2229
355.9116, 401.4719
356.3937, 373.2258
356.8759, 347.3726
357.3580, 326.0991
357.8401, 307.6968
358.3222, 291.5647
358.8043, 277.3052
359.2864, 264.0244
359.7686, 252.2532
360.2507, 240.6807
360.7328, 228.1399
361.2149, 213.0679
361.6970, 198.9885
362.1791, 188.1543
362.6613, 179.3213
363.1434, 169.6714
363.6255, 156.2000
364.1076, 143.3245
364.5897, 133.1343
365.0718, 126.5342
365.5540, 120.8433
366.0361, 116.8159
366.5182, 113.0610
367.0003, 107.9092
367.4824, 99.74121
367.9645, 91.71704
368.4467, 84.23853
368.9288, 77.44263
369.4109, 71.89453
369.8930, 68.23853
370.3751, 65.45190
370.8572, 63.00415
371.3394, 62.19189
371.8215, 59.52539
372.3036, 53.31909
372.7857, 44.82568
373.2678, 39.58716
373.7499, 39.02905
374.2321, 39.58228
374.7142, 39.39697
375.1963, 38.09814
375.6784, 36.91797
376.1605, 35.67065
376.6426, 34.88086
377.1248, 36.00708
377.6069, 39.75513
378.0890, 41.48535
378.5711, 39.00171
379.0532, 33.06665
379.5353, 28.99219
380.0175, 26.89185
380.4996, 25.99170
380.9817, 25.76782
381.4638, 26.15869
381.9459, 26.81812
382.4280, 27.75146
382.9102, 28.62256
383.3923, 28.81396
383.8744, 28.34131
384.3565, 27.51074
384.8386, 26.09644
385.3207, 24.49609
385.8029, 23.64136
386.2850, 23.70142
386.7671, 24.04004
387.2492, 25.18262
387.7313, 26.16699
388.2134, 24.73975
388.6956, 17.00171
389.1777, 8.347412
389.6598, 4.072998
390.1419, 4.093018
390.6240, 4.698486
391.1061, 4.364502
391.5883, 3.216797
392.0704, 1.264648
392.5525, 2.669189
393.0346, 5.672119
393.5167, 5.631348
393.9988, 3.516113
394.4810, 2.076416
394.9631, 2.545410
395.4452, 3.709717
395.9273, 5.223633
396.4094, 7.487305
396.8915, 8.711670
397.3737, 7.896729
397.8558, 6.144043
398.3379, 4.806885
398.8200, 5.596924
399.3021, 5.241211
399.7842, 2.378662
400.2664, 2.939209
400.7485, 6.168701
401.2306, 5.450195
401.7127, 4.307617
402.1948, 5.022461
402.6769, 8.516357
403.1591, 11.94214
403.6412, 15.92651
404.1233, 19.36523
404.6054, 19.18286
405.0875, 14.26050
405.5696, 9.021973
406.0518, 5.105713
406.5339, 2.553223
407.0160, 1.147949
407.4981, 1.154297
407.9802, 1.748779
408.4623, 1.738770
408.9445, 1.209961
409.4266, 1.975830
409.9087, 5.400635
410.3908, 9.791748
410.8729, 10.31665
411.3550, 7.141602
411.8372, 4.216064
412.3193, 4.702393
412.8014, 7.515137
413.2835, 10.30566
413.7656, 12.92529
414.2477, 14.85913
414.7299, 13.75171
415.2120, 11.32056
415.6941, 11.73267
416.1762, 19.82471
416.6583, 29.64746
417.1404, 36.02124
417.6226, 38.88257
418.1047, 40.04565
418.5868, 38.94604
419.0689, 37.37305
419.5510, 37.04785
420.0331, 38.59595
420.5153, 41.20508
420.9974, 46.76343
421.4795, 53.35669
421.9616, 55.77319
422.4437, 47.40015
422.9258, 39.26318
423.4080, 36.48462
423.8901, 41.18286
424.3722, 45.05151
424.8543, 47.94922
425.3364, 49.62427
425.8185, 49.55420
426.3007, 43.98975
426.7828, 42.45996
427.2649, 48.64185
427.7470, 60.71753
428.2291, 66.33472
428.7112, 61.99097
429.1934, 57.10889
429.6755, 57.28931
430.1576, 63.79053
430.6397, 68.73291
431.1218, 71.77002
431.6039, 73.32422
432.0861, 73.49609
432.5682, 72.12134
433.0503, 71.92529
433.5324, 74.31763
434.0145, 78.56396
434.4966, 82.08374
434.9788, 84.89258
435.4609, 87.61328
435.9430, 90.57544
436.4251, 93.94360
436.9072, 98.24170
437.3893, 103.9258
437.8715, 109.7937
438.3536, 113.9265
438.8357, 117.0356
439.3178, 121.1118
439.7999, 128.7583
440.2820, 136.8040
440.7642, 141.6580
441.2463, 143.1279
441.7284, 144.9719
442.2105, 149.3699
442.6926, 155.0151
443.1747, 160.8577
443.6569, 166.4385
444.1390, 172.3794
444.6211, 179.1318
445.1032, 186.4170
445.5853, 193.1670
446.0674, 199.1567
446.5496, 204.7646
447.0317, 209.9539
447.5138, 214.5955
447.9959, 219.8159
448.4780, 225.1057
448.9601, 231.5698
449.4423, 240.8083
449.9244, 254.8662
450.4065, 266.8438
450.8886, 275.5168
451.3707, 281.5630
451.8528, 287.5789
452.3350, 293.6809
452.8171, 299.2017
453.2992, 302.3130
453.7813, 302.8887
454.2634, 310.9246
454.7455, 328.1377
455.2277, 347.7441
455.7098, 363.0476
456.1919, 374.0232
456.6740, 380.7012
457.1561, 380.7046
457.6382, 378.5605
458.1204, 383.0596
458.6025, 393.2610
459.0846, 402.8220
459.5667, 407.2217
460.0488, 408.8420
460.5309, 410.7400
461.0131, 413.3826
461.4952, 416.1404
461.9773, 419.3762
462.4594, 422.2744
462.9415, 423.6965
463.4236, 422.9805
463.9058, 420.2546
464.3879, 415.4819
464.8700, 408.6443
465.3521, 399.9976
465.8342, 387.7593
466.3163, 374.9697
466.7985, 363.2092
467.2806, 352.6904
467.7627, 343.3364
468.2448, 336.0828
468.7269, 329.5042
469.2090, 321.5361
469.6912, 311.0710
470.1733, 301.2097
470.6554, 293.0801
471.1375, 286.3633
471.6196, 277.9402
472.1017, 267.2500
472.5839, 256.2534
473.0660, 246.5081
473.5481, 238.1226
474.0302, 228.2854
474.5123, 216.6860
474.9944, 203.6726
475.4766, 188.8311
475.9587, 172.6565
476.4408, 157.9077
476.9229, 144.5095
477.4050, 134.1309
477.8871, 132.0034
478.3693, 137.2227
478.8514, 141.2585
479.3335, 137.3333
479.8156, 129.1604
480.2977, 120.3179
480.7798, 110.3770
481.2620, 103.4534
481.7441, 103.5012
482.2262, 107.6855
482.7083, 111.8398
483.1904, 114.2869
483.6725, 116.6628
484.1547, 120.5107
484.6368, 125.4592
485.1189, 127.1833
485.6010, 123.8784
486.0831, 118.0012
486.5652, 110.4585
487.0474, 98.87207
487.5295, 90.82764
488.0116, 88.45801
488.4937, 88.11133
488.9758, 84.25537
489.4579, 75.32764
489.9401, 67.67627
490.4222, 62.92090
490.9043, 60.59229
491.3864, 58.40479
491.8685, 56.28955
492.3506, 54.79248
492.8328, 55.92773
493.3149, 58.43018
493.7970, 55.41943
494.2791, 45.52539
494.7612, 34.58887
495.2433, 29.66650
495.7255, 28.94678
496.2076, 27.74365
496.6897, 24.27490
497.1718, 19.74121
497.6539, 14.72998
498.1360, 9.515137
498.6182, 5.044922
499.1003, 0.6303710
499.5824, 2.005371
500.0645, 0.6010740
500.5466, 6.496094
501.0287, 11.10791
501.5109, 8.691895
501.9930, 3.573242
502.4751, 7.0800997E-02
502.9572, 2.6854999E-02
503.4393, 3.0273000E-02
503.9214, 9.6680000E-02
504.4036, 0.3466800
504.8857, 1.199707
505.3678, 2.998047
505.8499, 4.779297
506.3320, 6.265625
506.8141, 7.473145
507.2963, 7.774414
507.7784, 6.982422
508.2605, 5.663574
508.7426, 4.221191
509.2247, 2.670898
509.7068, 1.158691
510.1890, 0.5644530
510.6711, 1.674316
511.1532, 0.5986330
511.6353, 5.328125
512.1174, 8.015137
512.5995, 3.806641
513.0817, 2.329590
513.5638, 3.757813
514.0459, 0.5527340
514.5280, 2.361328
515.0101, 1.032227
515.4922, 1.663574
515.9744, 2.925293
516.4565, 1.408691
516.9386, 7.8125000E-02
517.4207, 0.4023440
517.9028, 1.478027
518.3849, 1.798340
518.8671, 1.354492
519.3492, 0.1616210
519.8313, 3.869629
520.3134, 9.441895
520.7955, 11.93213
521.2776, 10.90869
521.7598, 7.504395
522.2419, 1.523926
522.7240, 8.171875
523.2061, 14.41162
523.6882, 16.89893
524.1703, 16.29785
524.6525, 11.90186
525.1346, 4.101074
525.6167, 0.7202150
526.0988, 0.1665040
526.5809, 3.956055
527.0630, 5.194336
527.5452, 4.479492
528.0273, 5.110840
528.5094, 10.56494
528.9915, 17.66602
529.4736, 23.05371
529.9557, 26.47510
530.4379, 28.71729
530.9200, 28.90381
531.4021, 28.78174
531.8842, 29.96875
532.3663, 31.63916
532.8484, 36.25684
533.3306, 47.32520
533.8127, 61.50146
534.2948, 71.40771
534.7769, 72.64453
535.2590, 74.12891
535.7411, 77.93115
536.2233, 83.97949
536.7054, 90.38037
537.1875, 98.12695
537.6696, 104.3374
538.1517, 105.6230
538.6339, 101.2163
539.1160, 103.7134
539.5981, 115.6006
540.0802, 129.3828
540.5623, 133.0947
541.0444, 128.9893
541.5266, 130.3545
542.0087, 143.5737
542.4908, 161.6431
542.9729, 174.8306
543.4550, 183.9023
543.9371, 192.5176
544.4193, 203.4175
544.9014, 214.3301
545.3835, 222.7241
545.8656, 228.1885
546.3477, 234.9238
546.8298, 247.0132
547.3120, 259.8818
547.7941, 269.5864
548.2762, 271.2153
548.7583, 275.6333
549.2404, 285.5562
549.7225, 298.1250
550.2047, 308.5586
550.6868, 316.2710
551.1689, 322.9316
551.6510, 328.5020
552.1331, 333.2827
552.6152, 338.9448
553.0974, 345.5757
553.5795, 352.9443
554.0616, 361.2363
554.5437, 370.3350
555.0258, 379.2183
555.5079, 387.9058
555.9901, 396.6772
556.4722, 405.4634
556.9543, 414.7495
557.4364, 425.2720
557.9185, 437.0610
558.4006, 450.9375
558.8828, 469.8994
559.3649, 491.4180
559.8470, 510.1738
560.3291, 522.6284
